#  E (eV)   dos(E)     Int dos(E) EFermi =    8.023 eV
 -15.425  0.4952E-03  0.4952E-05
 -15.415  0.5549E-03  0.1050E-04
 -15.405  0.6214E-03  0.1671E-04
 -15.395  0.6954E-03  0.2367E-04
 -15.385  0.7777E-03  0.3145E-04
 -15.375  0.8692E-03  0.4014E-04
 -15.365  0.9708E-03  0.4985E-04
 -15.355  0.1084E-02  0.6068E-04
 -15.345  0.1209E-02  0.7277E-04
 -15.335  0.1347E-02  0.8624E-04
 -15.325  0.1501E-02  0.1013E-03
 -15.315  0.1671E-02  0.1180E-03
 -15.305  0.1859E-02  0.1366E-03
 -15.295  0.2067E-02  0.1572E-03
 -15.285  0.2297E-02  0.1802E-03
 -15.275  0.2551E-02  0.2057E-03
 -15.265  0.2831E-02  0.2340E-03
 -15.255  0.3139E-02  0.2654E-03
 -15.245  0.3479E-02  0.3002E-03
 -15.235  0.3854E-02  0.3388E-03
 -15.225  0.4266E-02  0.3814E-03
 -15.215  0.4718E-02  0.4286E-03
 -15.205  0.5216E-02  0.4808E-03
 -15.195  0.5762E-02  0.5384E-03
 -15.185  0.6361E-02  0.6020E-03
 -15.175  0.7019E-02  0.6722E-03
 -15.165  0.7739E-02  0.7496E-03
 -15.155  0.8527E-02  0.8348E-03
 -15.145  0.9390E-02  0.9287E-03
 -15.135  0.1033E-01  0.1032E-02
 -15.125  0.1136E-01  0.1146E-02
 -15.115  0.1249E-01  0.1271E-02
 -15.105  0.1372E-01  0.1408E-02
 -15.095  0.1506E-01  0.1558E-02
 -15.085  0.1652E-01  0.1724E-02
 -15.075  0.1811E-01  0.1905E-02
 -15.065  0.1984E-01  0.2103E-02
 -15.055  0.2172E-01  0.2320E-02
 -15.045  0.2377E-01  0.2558E-02
 -15.035  0.2599E-01  0.2818E-02
 -15.025  0.2840E-01  0.3102E-02
 -15.015  0.3102E-01  0.3412E-02
 -15.005  0.3386E-01  0.3751E-02
 -14.995  0.3693E-01  0.4120E-02
 -14.985  0.4025E-01  0.4523E-02
 -14.975  0.4385E-01  0.4961E-02
 -14.965  0.4773E-01  0.5438E-02
 -14.955  0.5193E-01  0.5958E-02
 -14.945  0.5646E-01  0.6522E-02
 -14.935  0.6135E-01  0.7136E-02
 -14.925  0.6662E-01  0.7802E-02
 -14.915  0.7230E-01  0.8525E-02
 -14.905  0.7841E-01  0.9309E-02
 -14.895  0.8498E-01  0.1016E-01
 -14.885  0.9205E-01  0.1108E-01
 -14.875  0.9964E-01  0.1208E-01
 -14.865  0.1078E+00  0.1315E-01
 -14.855  0.1165E+00  0.1432E-01
 -14.845  0.1259E+00  0.1558E-01
 -14.835  0.1360E+00  0.1694E-01
 -14.825  0.1467E+00  0.1841E-01
 -14.815  0.1582E+00  0.1999E-01
 -14.805  0.1705E+00  0.2169E-01
 -14.795  0.1837E+00  0.2353E-01
 -14.785  0.1977E+00  0.2551E-01
 -14.775  0.2127E+00  0.2763E-01
 -14.765  0.2287E+00  0.2992E-01
 -14.755  0.2457E+00  0.3238E-01
 -14.745  0.2638E+00  0.3501E-01
 -14.735  0.2831E+00  0.3784E-01
 -14.725  0.3036E+00  0.4088E-01
 -14.715  0.3253E+00  0.4413E-01
 -14.705  0.3485E+00  0.4762E-01
 -14.695  0.3730E+00  0.5135E-01
 -14.685  0.3990E+00  0.5534E-01
 -14.675  0.4266E+00  0.5960E-01
 -14.665  0.4558E+00  0.6416E-01
 -14.655  0.4867E+00  0.6903E-01
 -14.645  0.5194E+00  0.7422E-01
 -14.635  0.5539E+00  0.7976E-01
 -14.625  0.5904E+00  0.8567E-01
 -14.615  0.6289E+00  0.9196E-01
 -14.605  0.6695E+00  0.9865E-01
 -14.595  0.7123E+00  0.1058E+00
 -14.585  0.7573E+00  0.1133E+00
 -14.575  0.8047E+00  0.1214E+00
 -14.565  0.8546E+00  0.1299E+00
 -14.555  0.9070E+00  0.1390E+00
 -14.545  0.9620E+00  0.1486E+00
 -14.535  0.1020E+01  0.1588E+00
 -14.525  0.1080E+01  0.1696E+00
 -14.515  0.1144E+01  0.1811E+00
 -14.505  0.1210E+01  0.1932E+00
 -14.495  0.1280E+01  0.2060E+00
 -14.485  0.1353E+01  0.2195E+00
 -14.475  0.1429E+01  0.2338E+00
 -14.465  0.1508E+01  0.2489E+00
 -14.455  0.1591E+01  0.2648E+00
 -14.445  0.1677E+01  0.2815E+00
 -14.435  0.1767E+01  0.2992E+00
 -14.425  0.1861E+01  0.3178E+00
 -14.415  0.1959E+01  0.3374E+00
 -14.405  0.2060E+01  0.3580E+00
 -14.395  0.2165E+01  0.3797E+00
 -14.385  0.2275E+01  0.4024E+00
 -14.375  0.2388E+01  0.4263E+00
 -14.365  0.2506E+01  0.4514E+00
 -14.355  0.2628E+01  0.4776E+00
 -14.345  0.2755E+01  0.5052E+00
 -14.335  0.2885E+01  0.5340E+00
 -14.325  0.3020E+01  0.5642E+00
 -14.315  0.3160E+01  0.5958E+00
 -14.305  0.3304E+01  0.6289E+00
 -14.295  0.3453E+01  0.6634E+00
 -14.285  0.3606E+01  0.6995E+00
 -14.275  0.3764E+01  0.7371E+00
 -14.265  0.3926E+01  0.7764E+00
 -14.255  0.4094E+01  0.8173E+00
 -14.245  0.4265E+01  0.8600E+00
 -14.235  0.4442E+01  0.9044E+00
 -14.225  0.4623E+01  0.9506E+00
 -14.215  0.4808E+01  0.9987E+00
 -14.205  0.4998E+01  0.1049E+01
 -14.195  0.5193E+01  0.1101E+01
 -14.185  0.5392E+01  0.1155E+01
 -14.175  0.5596E+01  0.1210E+01
 -14.165  0.5804E+01  0.1269E+01
 -14.155  0.6016E+01  0.1329E+01
 -14.145  0.6232E+01  0.1391E+01
 -14.135  0.6453E+01  0.1456E+01
 -14.125  0.6677E+01  0.1522E+01
 -14.115  0.6906E+01  0.1591E+01
 -14.105  0.7138E+01  0.1663E+01
 -14.095  0.7373E+01  0.1736E+01
 -14.085  0.7612E+01  0.1813E+01
 -14.075  0.7855E+01  0.1891E+01
 -14.065  0.8100E+01  0.1972E+01
 -14.055  0.8349E+01  0.2056E+01
 -14.045  0.8600E+01  0.2142E+01
 -14.035  0.8854E+01  0.2230E+01
 -14.025  0.9110E+01  0.2321E+01
 -14.015  0.9368E+01  0.2415E+01
 -14.005  0.9629E+01  0.2511E+01
 -13.995  0.9890E+01  0.2610E+01
 -13.985  0.1015E+02  0.2712E+01
 -13.975  0.1042E+02  0.2816E+01
 -13.965  0.1068E+02  0.2923E+01
 -13.955  0.1095E+02  0.3032E+01
 -13.945  0.1122E+02  0.3144E+01
 -13.935  0.1148E+02  0.3259E+01
 -13.925  0.1175E+02  0.3377E+01
 -13.915  0.1202E+02  0.3497E+01
 -13.905  0.1228E+02  0.3620E+01
 -13.895  0.1254E+02  0.3745E+01
 -13.885  0.1281E+02  0.3873E+01
 -13.875  0.1307E+02  0.4004E+01
 -13.865  0.1333E+02  0.4137E+01
 -13.855  0.1358E+02  0.4273E+01
 -13.845  0.1384E+02  0.4411E+01
 -13.835  0.1409E+02  0.4552E+01
 -13.825  0.1433E+02  0.4695E+01
 -13.815  0.1458E+02  0.4841E+01
 -13.805  0.1482E+02  0.4989E+01
 -13.795  0.1505E+02  0.5140E+01
 -13.785  0.1528E+02  0.5293E+01
 -13.775  0.1551E+02  0.5448E+01
 -13.765  0.1573E+02  0.5605E+01
 -13.755  0.1594E+02  0.5764E+01
 -13.745  0.1615E+02  0.5926E+01
 -13.735  0.1635E+02  0.6090E+01
 -13.725  0.1655E+02  0.6255E+01
 -13.715  0.1674E+02  0.6422E+01
 -13.705  0.1692E+02  0.6592E+01
 -13.695  0.1710E+02  0.6763E+01
 -13.685  0.1726E+02  0.6935E+01
 -13.675  0.1742E+02  0.7109E+01
 -13.665  0.1757E+02  0.7285E+01
 -13.655  0.1772E+02  0.7462E+01
 -13.645  0.1785E+02  0.7641E+01
 -13.635  0.1798E+02  0.7821E+01
 -13.625  0.1809E+02  0.8002E+01
 -13.615  0.1820E+02  0.8184E+01
 -13.605  0.1830E+02  0.8367E+01
 -13.595  0.1839E+02  0.8550E+01
 -13.585  0.1847E+02  0.8735E+01
 -13.575  0.1853E+02  0.8920E+01
 -13.565  0.1859E+02  0.9106E+01
 -13.555  0.1864E+02  0.9293E+01
 -13.545  0.1868E+02  0.9480E+01
 -13.535  0.1871E+02  0.9667E+01
 -13.525  0.1873E+02  0.9854E+01
 -13.515  0.1874E+02  0.1004E+02
 -13.505  0.1874E+02  0.1023E+02
 -13.495  0.1873E+02  0.1042E+02
 -13.485  0.1871E+02  0.1060E+02
 -13.475  0.1867E+02  0.1079E+02
 -13.465  0.1863E+02  0.1098E+02
 -13.455  0.1858E+02  0.1116E+02
 -13.445  0.1852E+02  0.1135E+02
 -13.435  0.1845E+02  0.1153E+02
 -13.425  0.1837E+02  0.1172E+02
 -13.415  0.1827E+02  0.1190E+02
 -13.405  0.1817E+02  0.1208E+02
 -13.395  0.1806E+02  0.1226E+02
 -13.385  0.1794E+02  0.1244E+02
 -13.375  0.1782E+02  0.1262E+02
 -13.365  0.1768E+02  0.1279E+02
 -13.355  0.1753E+02  0.1297E+02
 -13.345  0.1738E+02  0.1314E+02
 -13.335  0.1722E+02  0.1332E+02
 -13.325  0.1705E+02  0.1349E+02
 -13.315  0.1687E+02  0.1366E+02
 -13.305  0.1669E+02  0.1382E+02
 -13.295  0.1650E+02  0.1399E+02
 -13.285  0.1630E+02  0.1415E+02
 -13.275  0.1609E+02  0.1431E+02
 -13.265  0.1588E+02  0.1447E+02
 -13.255  0.1566E+02  0.1463E+02
 -13.245  0.1544E+02  0.1478E+02
 -13.235  0.1521E+02  0.1493E+02
 -13.225  0.1498E+02  0.1508E+02
 -13.215  0.1474E+02  0.1523E+02
 -13.205  0.1450E+02  0.1538E+02
 -13.195  0.1426E+02  0.1552E+02
 -13.185  0.1401E+02  0.1566E+02
 -13.175  0.1375E+02  0.1580E+02
 -13.165  0.1350E+02  0.1593E+02
 -13.155  0.1324E+02  0.1606E+02
 -13.145  0.1298E+02  0.1619E+02
 -13.135  0.1272E+02  0.1632E+02
 -13.125  0.1245E+02  0.1644E+02
 -13.115  0.1219E+02  0.1657E+02
 -13.105  0.1192E+02  0.1669E+02
 -13.095  0.1165E+02  0.1680E+02
 -13.085  0.1139E+02  0.1692E+02
 -13.075  0.1112E+02  0.1703E+02
 -13.065  0.1085E+02  0.1714E+02
 -13.055  0.1058E+02  0.1724E+02
 -13.045  0.1032E+02  0.1734E+02
 -13.035  0.1005E+02  0.1745E+02
 -13.025  0.9786E+01  0.1754E+02
 -13.015  0.9523E+01  0.1764E+02
 -13.005  0.9262E+01  0.1773E+02
 -12.995  0.9003E+01  0.1782E+02
 -12.985  0.8747E+01  0.1791E+02
 -12.975  0.8492E+01  0.1799E+02
 -12.965  0.8241E+01  0.1808E+02
 -12.955  0.7992E+01  0.1816E+02
 -12.945  0.7746E+01  0.1823E+02
 -12.935  0.7504E+01  0.1831E+02
 -12.925  0.7265E+01  0.1838E+02
 -12.915  0.7029E+01  0.1845E+02
 -12.905  0.6798E+01  0.1852E+02
 -12.895  0.6570E+01  0.1858E+02
 -12.885  0.6346E+01  0.1865E+02
 -12.875  0.6126E+01  0.1871E+02
 -12.865  0.5910E+01  0.1877E+02
 -12.855  0.5699E+01  0.1883E+02
 -12.845  0.5492E+01  0.1888E+02
 -12.835  0.5289E+01  0.1893E+02
 -12.825  0.5091E+01  0.1898E+02
 -12.815  0.4897E+01  0.1903E+02
 -12.805  0.4708E+01  0.1908E+02
 -12.795  0.4524E+01  0.1913E+02
 -12.785  0.4345E+01  0.1917E+02
 -12.775  0.4170E+01  0.1921E+02
 -12.765  0.3999E+01  0.1925E+02
 -12.755  0.3834E+01  0.1929E+02
 -12.745  0.3673E+01  0.1933E+02
 -12.735  0.3517E+01  0.1936E+02
 -12.725  0.3365E+01  0.1939E+02
 -12.715  0.3218E+01  0.1943E+02
 -12.705  0.3076E+01  0.1946E+02
 -12.695  0.2938E+01  0.1949E+02
 -12.685  0.2805E+01  0.1951E+02
 -12.675  0.2676E+01  0.1954E+02
 -12.665  0.2551E+01  0.1957E+02
 -12.655  0.2431E+01  0.1959E+02
 -12.645  0.2315E+01  0.1961E+02
 -12.635  0.2204E+01  0.1964E+02
 -12.625  0.2096E+01  0.1966E+02
 -12.615  0.1993E+01  0.1968E+02
 -12.605  0.1893E+01  0.1970E+02
 -12.595  0.1797E+01  0.1971E+02
 -12.585  0.1706E+01  0.1973E+02
 -12.575  0.1618E+01  0.1975E+02
 -12.565  0.1533E+01  0.1976E+02
 -12.555  0.1452E+01  0.1978E+02
 -12.545  0.1375E+01  0.1979E+02
 -12.535  0.1300E+01  0.1980E+02
 -12.525  0.1230E+01  0.1982E+02
 -12.515  0.1162E+01  0.1983E+02
 -12.505  0.1097E+01  0.1984E+02
 -12.495  0.1035E+01  0.1985E+02
 -12.485  0.9766E+00  0.1986E+02
 -12.475  0.9205E+00  0.1987E+02
 -12.465  0.8672E+00  0.1988E+02
 -12.455  0.8164E+00  0.1989E+02
 -12.445  0.7681E+00  0.1989E+02
 -12.435  0.7223E+00  0.1990E+02
 -12.425  0.6787E+00  0.1991E+02
 -12.415  0.6374E+00  0.1991E+02
 -12.405  0.5983E+00  0.1992E+02
 -12.395  0.5612E+00  0.1993E+02
 -12.385  0.5260E+00  0.1993E+02
 -12.375  0.4928E+00  0.1994E+02
 -12.365  0.4614E+00  0.1994E+02
 -12.355  0.4317E+00  0.1994E+02
 -12.345  0.4037E+00  0.1995E+02
 -12.335  0.3773E+00  0.1995E+02
 -12.325  0.3523E+00  0.1996E+02
 -12.315  0.3289E+00  0.1996E+02
 -12.305  0.3068E+00  0.1996E+02
 -12.295  0.2860E+00  0.1996E+02
 -12.285  0.2664E+00  0.1997E+02
 -12.275  0.2480E+00  0.1997E+02
 -12.265  0.2308E+00  0.1997E+02
 -12.255  0.2146E+00  0.1997E+02
 -12.245  0.1994E+00  0.1998E+02
 -12.235  0.1852E+00  0.1998E+02
 -12.225  0.1719E+00  0.1998E+02
 -12.215  0.1594E+00  0.1998E+02
 -12.205  0.1478E+00  0.1998E+02
 -12.195  0.1369E+00  0.1998E+02
 -12.185  0.1268E+00  0.1999E+02
 -12.175  0.1173E+00  0.1999E+02
 -12.165  0.1084E+00  0.1999E+02
 -12.155  0.1002E+00  0.1999E+02
 -12.145  0.9254E-01  0.1999E+02
 -12.135  0.8541E-01  0.1999E+02
 -12.125  0.7877E-01  0.1999E+02
 -12.115  0.7261E-01  0.1999E+02
 -12.105  0.6688E-01  0.1999E+02
 -12.095  0.6157E-01  0.1999E+02
 -12.085  0.5665E-01  0.1999E+02
 -12.075  0.5208E-01  0.1999E+02
 -12.065  0.4785E-01  0.1999E+02
 -12.055  0.4394E-01  0.2000E+02
 -12.045  0.4032E-01  0.2000E+02
 -12.035  0.3698E-01  0.2000E+02
 -12.025  0.3389E-01  0.2000E+02
 -12.015  0.3104E-01  0.2000E+02
 -12.005  0.2841E-01  0.2000E+02
 -11.995  0.2599E-01  0.2000E+02
 -11.985  0.2376E-01  0.2000E+02
 -11.975  0.2171E-01  0.2000E+02
 -11.965  0.1982E-01  0.2000E+02
 -11.955  0.1808E-01  0.2000E+02
 -11.945  0.1649E-01  0.2000E+02
 -11.935  0.1502E-01  0.2000E+02
 -11.925  0.1368E-01  0.2000E+02
 -11.915  0.1245E-01  0.2000E+02
 -11.905  0.1133E-01  0.2000E+02
 -11.895  0.1029E-01  0.2000E+02
 -11.885  0.9350E-02  0.2000E+02
 -11.875  0.8488E-02  0.2000E+02
 -11.865  0.7700E-02  0.2000E+02
 -11.855  0.6981E-02  0.2000E+02
 -11.845  0.6325E-02  0.2000E+02
 -11.835  0.5726E-02  0.2000E+02
 -11.825  0.5182E-02  0.2000E+02
 -11.815  0.4685E-02  0.2000E+02
 -11.805  0.4234E-02  0.2000E+02
 -11.795  0.3824E-02  0.2000E+02
 -11.785  0.3451E-02  0.2000E+02
 -11.775  0.3113E-02  0.2000E+02
 -11.765  0.2806E-02  0.2000E+02
 -11.755  0.2527E-02  0.2000E+02
 -11.745  0.2275E-02  0.2000E+02
 -11.735  0.2047E-02  0.2000E+02
 -11.725  0.1840E-02  0.2000E+02
 -11.715  0.1653E-02  0.2000E+02
 -11.705  0.1484E-02  0.2000E+02
 -11.695  0.1332E-02  0.2000E+02
 -11.685  0.1194E-02  0.2000E+02
 -11.675  0.1070E-02  0.2000E+02
 -11.665  0.9584E-03  0.2000E+02
 -11.655  0.8577E-03  0.2000E+02
 -11.645  0.7671E-03  0.2000E+02
 -11.635  0.6857E-03  0.2000E+02
 -11.625  0.6125E-03  0.2000E+02
 -11.615  0.5467E-03  0.2000E+02
 -11.605  0.4877E-03  0.2000E+02
 -11.595  0.4348E-03  0.2000E+02
 -11.585  0.3873E-03  0.2000E+02
 -11.575  0.3449E-03  0.2000E+02
 -11.565  0.3068E-03  0.2000E+02
 -11.555  0.2728E-03  0.2000E+02
 -11.545  0.2424E-03  0.2000E+02
 -11.535  0.2153E-03  0.2000E+02
 -11.525  0.1910E-03  0.2000E+02
 -11.515  0.1694E-03  0.2000E+02
 -11.505  0.1502E-03  0.2000E+02
 -11.495  0.1330E-03  0.2000E+02
 -11.485  0.1177E-03  0.2000E+02
 -11.475  0.1041E-03  0.2000E+02
 -11.465  0.9204E-04  0.2000E+02
 -11.455  0.8131E-04  0.2000E+02
 -11.445  0.7178E-04  0.2000E+02
 -11.435  0.6333E-04  0.2000E+02
 -11.425  0.5583E-04  0.2000E+02
 -11.415  0.4919E-04  0.2000E+02
 -11.405  0.4331E-04  0.2000E+02
 -11.395  0.3811E-04  0.2000E+02
 -11.385  0.3351E-04  0.2000E+02
 -11.375  0.2945E-04  0.2000E+02
 -11.365  0.2586E-04  0.2000E+02
 -11.355  0.2270E-04  0.2000E+02
 -11.345  0.1991E-04  0.2000E+02
 -11.335  0.1745E-04  0.2000E+02
 -11.325  0.1528E-04  0.2000E+02
 -11.315  0.1338E-04  0.2000E+02
 -11.305  0.1170E-04  0.2000E+02
 -11.295  0.1023E-04  0.2000E+02
 -11.285  0.8937E-05  0.2000E+02
 -11.275  0.7802E-05  0.2000E+02
 -11.265  0.6807E-05  0.2000E+02
 -11.255  0.5935E-05  0.2000E+02
 -11.245  0.5171E-05  0.2000E+02
 -11.235  0.4503E-05  0.2000E+02
 -11.225  0.3918E-05  0.2000E+02
 -11.215  0.3407E-05  0.2000E+02
 -11.205  0.2961E-05  0.2000E+02
 -11.195  0.2571E-05  0.2000E+02
 -11.185  0.2232E-05  0.2000E+02
 -11.175  0.1935E-05  0.2000E+02
 -11.165  0.1677E-05  0.2000E+02
 -11.155  0.1453E-05  0.2000E+02
 -11.145  0.1258E-05  0.2000E+02
 -11.135  0.1088E-05  0.2000E+02
 -11.125  0.9404E-06  0.2000E+02
 -11.115  0.8124E-06  0.2000E+02
 -11.105  0.7014E-06  0.2000E+02
 -11.095  0.6051E-06  0.2000E+02
 -11.085  0.5217E-06  0.2000E+02
 -11.075  0.4495E-06  0.2000E+02
 -11.065  0.3870E-06  0.2000E+02
 -11.055  0.3330E-06  0.2000E+02
 -11.045  0.2864E-06  0.2000E+02
 -11.035  0.2461E-06  0.2000E+02
 -11.025  0.2113E-06  0.2000E+02
 -11.015  0.1814E-06  0.2000E+02
 -11.005  0.1555E-06  0.2000E+02
 -10.995  0.1333E-06  0.2000E+02
 -10.985  0.1142E-06  0.2000E+02
 -10.975  0.9772E-07  0.2000E+02
 -10.965  0.8359E-07  0.2000E+02
 -10.955  0.7145E-07  0.2000E+02
 -10.945  0.6103E-07  0.2000E+02
 -10.935  0.5210E-07  0.2000E+02
 -10.925  0.4445E-07  0.2000E+02
 -10.915  0.3789E-07  0.2000E+02
 -10.905  0.3228E-07  0.2000E+02
 -10.895  0.2749E-07  0.2000E+02
 -10.885  0.2339E-07  0.2000E+02
 -10.875  0.1988E-07  0.2000E+02
 -10.865  0.1690E-07  0.2000E+02
 -10.855  0.1435E-07  0.2000E+02
 -10.845  0.1218E-07  0.2000E+02
 -10.835  0.1032E-07  0.2000E+02
 -10.825  0.8750E-08  0.2000E+02
 -10.815  0.7410E-08  0.2000E+02
 -10.805  0.6272E-08  0.2000E+02
 -10.795  0.5304E-08  0.2000E+02
 -10.785  0.4483E-08  0.2000E+02
 -10.775  0.3787E-08  0.2000E+02
 -10.765  0.3196E-08  0.2000E+02
 -10.755  0.2696E-08  0.2000E+02
 -10.745  0.2273E-08  0.2000E+02
 -10.735  0.1915E-08  0.2000E+02
 -10.725  0.1612E-08  0.2000E+02
 -10.715  0.1356E-08  0.2000E+02
 -10.705  0.1140E-08  0.2000E+02
 -10.695  0.9579E-09  0.2000E+02
 -10.685  0.8043E-09  0.2000E+02
 -10.675  0.6748E-09  0.2000E+02
 -10.665  0.5658E-09  0.2000E+02
 -10.655  0.4741E-09  0.2000E+02
 -10.645  0.3970E-09  0.2000E+02
 -10.635  0.3323E-09  0.2000E+02
 -10.625  0.2779E-09  0.2000E+02
 -10.615  0.2322E-09  0.2000E+02
 -10.605  0.1939E-09  0.2000E+02
 -10.595  0.1619E-09  0.2000E+02
 -10.585  0.1350E-09  0.2000E+02
 -10.575  0.1125E-09  0.2000E+02
 -10.565  0.9372E-10  0.2000E+02
 -10.555  0.7802E-10  0.2000E+02
 -10.545  0.6490E-10  0.2000E+02
 -10.535  0.5395E-10  0.2000E+02
 -10.525  0.4481E-10  0.2000E+02
 -10.515  0.3720E-10  0.2000E+02
 -10.505  0.3087E-10  0.2000E+02
 -10.495  0.2559E-10  0.2000E+02
 -10.485  0.2120E-10  0.2000E+02
 -10.475  0.1755E-10  0.2000E+02
 -10.465  0.1452E-10  0.2000E+02
 -10.455  0.1201E-10  0.2000E+02
 -10.445  0.9924E-11  0.2000E+02
 -10.435  0.8194E-11  0.2000E+02
 -10.425  0.6762E-11  0.2000E+02
 -10.415  0.5576E-11  0.2000E+02
 -10.405  0.4596E-11  0.2000E+02
 -10.395  0.3785E-11  0.2000E+02
 -10.385  0.3115E-11  0.2000E+02
 -10.375  0.2562E-11  0.2000E+02
 -10.365  0.2106E-11  0.2000E+02
 -10.355  0.1729E-11  0.2000E+02
 -10.345  0.1420E-11  0.2000E+02
 -10.335  0.1164E-11  0.2000E+02
 -10.325  0.9545E-12  0.2000E+02
 -10.315  0.7819E-12  0.2000E+02
 -10.305  0.6401E-12  0.2000E+02
 -10.295  0.5237E-12  0.2000E+02
 -10.285  0.4281E-12  0.2000E+02
 -10.275  0.3498E-12  0.2000E+02
 -10.265  0.2856E-12  0.2000E+02
 -10.255  0.2330E-12  0.2000E+02
 -10.245  0.1900E-12  0.2000E+02
 -10.235  0.1548E-12  0.2000E+02
 -10.225  0.1260E-12  0.2000E+02
 -10.215  0.1026E-12  0.2000E+02
 -10.205  0.8340E-13  0.2000E+02
 -10.195  0.6777E-13  0.2000E+02
 -10.185  0.5504E-13  0.2000E+02
 -10.175  0.4467E-13  0.2000E+02
 -10.165  0.3622E-13  0.2000E+02
 -10.155  0.2936E-13  0.2000E+02
 -10.145  0.2378E-13  0.2000E+02
 -10.135  0.1925E-13  0.2000E+02
 -10.125  0.1557E-13  0.2000E+02
 -10.115  0.1258E-13  0.2000E+02
 -10.105  0.1016E-13  0.2000E+02
 -10.095  0.8204E-14  0.2000E+02
 -10.085  0.6618E-14  0.2000E+02
 -10.075  0.5335E-14  0.2000E+02
 -10.065  0.4298E-14  0.2000E+02
 -10.055  0.3460E-14  0.2000E+02
 -10.045  0.2784E-14  0.2000E+02
 -10.035  0.2238E-14  0.2000E+02
 -10.025  0.1798E-14  0.2000E+02
 -10.015  0.1444E-14  0.2000E+02
 -10.005  0.1158E-14  0.2000E+02
  -9.995  0.9289E-15  0.2000E+02
  -9.985  0.7444E-15  0.2000E+02
  -9.975  0.5960E-15  0.2000E+02
  -9.965  0.4770E-15  0.2000E+02
  -9.955  0.3814E-15  0.2000E+02
  -9.945  0.3048E-15  0.2000E+02
  -9.935  0.2434E-15  0.2000E+02
  -9.925  0.1943E-15  0.2000E+02
  -9.915  0.1550E-15  0.2000E+02
  -9.905  0.1235E-15  0.2000E+02
  -9.895  0.9837E-16  0.2000E+02
  -9.885  0.7830E-16  0.2000E+02
  -9.875  0.6228E-16  0.2000E+02
  -9.865  0.4950E-16  0.2000E+02
  -9.855  0.3932E-16  0.2000E+02
  -9.845  0.3122E-16  0.2000E+02
  -9.835  0.2476E-16  0.2000E+02
  -9.825  0.1963E-16  0.2000E+02
  -9.815  0.1555E-16  0.2000E+02
  -9.805  0.1231E-16  0.2000E+02
  -9.795  0.9742E-17  0.2000E+02
  -9.785  0.7702E-17  0.2000E+02
  -9.775  0.6086E-17  0.2000E+02
  -9.765  0.4805E-17  0.2000E+02
  -9.755  0.3791E-17  0.2000E+02
  -9.745  0.2990E-17  0.2000E+02
  -9.735  0.2356E-17  0.2000E+02
  -9.725  0.1855E-17  0.2000E+02
  -9.715  0.1460E-17  0.2000E+02
  -9.705  0.1148E-17  0.2000E+02
  -9.695  0.9022E-18  0.2000E+02
  -9.685  0.7086E-18  0.2000E+02
  -9.675  0.5561E-18  0.2000E+02
  -9.665  0.4362E-18  0.2000E+02
  -9.655  0.3419E-18  0.2000E+02
  -9.645  0.2678E-18  0.2000E+02
  -9.635  0.2096E-18  0.2000E+02
  -9.625  0.1639E-18  0.2000E+02
  -9.615  0.1281E-18  0.2000E+02
  -9.605  0.1001E-18  0.2000E+02
  -9.595  0.7814E-19  0.2000E+02
  -9.585  0.6096E-19  0.2000E+02
  -9.575  0.4752E-19  0.2000E+02
  -9.565  0.3702E-19  0.2000E+02
  -9.555  0.2882E-19  0.2000E+02
  -9.545  0.2243E-19  0.2000E+02
  -9.535  0.1744E-19  0.2000E+02
  -9.525  0.1355E-19  0.2000E+02
  -9.515  0.1052E-19  0.2000E+02
  -9.505  0.8162E-20  0.2000E+02
  -9.495  0.6329E-20  0.2000E+02
  -9.485  0.4904E-20  0.2000E+02
  -9.475  0.3798E-20  0.2000E+02
  -9.465  0.2939E-20  0.2000E+02
  -9.455  0.2273E-20  0.2000E+02
  -9.445  0.1756E-20  0.2000E+02
  -9.435  0.1356E-20  0.2000E+02
  -9.425  0.1047E-20  0.2000E+02
  -9.415  0.8074E-21  0.2000E+02
  -9.405  0.6223E-21  0.2000E+02
  -9.395  0.4793E-21  0.2000E+02
  -9.385  0.3689E-21  0.2000E+02
  -9.375  0.2838E-21  0.2000E+02
  -9.365  0.2181E-21  0.2000E+02
  -9.355  0.1676E-21  0.2000E+02
  -9.345  0.1286E-21  0.2000E+02
  -9.335  0.9867E-22  0.2000E+02
  -9.325  0.7564E-22  0.2000E+02
  -9.315  0.5795E-22  0.2000E+02
  -9.305  0.4436E-22  0.2000E+02
  -9.295  0.3394E-22  0.2000E+02
  -9.285  0.2595E-22  0.2000E+02
  -9.275  0.1983E-22  0.2000E+02
  -9.265  0.1514E-22  0.2000E+02
  -9.255  0.1155E-22  0.2000E+02
  -9.245  0.8808E-23  0.2000E+02
  -9.235  0.6711E-23  0.2000E+02
  -9.225  0.5111E-23  0.2000E+02
  -9.215  0.3889E-23  0.2000E+02
  -9.205  0.2957E-23  0.2000E+02
  -9.195  0.2248E-23  0.2000E+02
  -9.185  0.1707E-23  0.2000E+02
  -9.175  0.1295E-23  0.2000E+02
  -9.165  0.9824E-24  0.2000E+02
  -9.155  0.7446E-24  0.2000E+02
  -9.145  0.5640E-24  0.2000E+02
  -9.135  0.4268E-24  0.2000E+02
  -9.125  0.3229E-24  0.2000E+02
  -9.115  0.2440E-24  0.2000E+02
  -9.105  0.1843E-24  0.2000E+02
  -9.095  0.1392E-24  0.2000E+02
  -9.085  0.1050E-24  0.2000E+02
  -9.075  0.7913E-25  0.2000E+02
  -9.065  0.5961E-25  0.2000E+02
  -9.055  0.4488E-25  0.2000E+02
  -9.045  0.3376E-25  0.2000E+02
  -9.035  0.2538E-25  0.2000E+02
  -9.025  0.1907E-25  0.2000E+02
  -9.015  0.1432E-25  0.2000E+02
  -9.005  0.1074E-25  0.2000E+02
  -8.995  0.8055E-26  0.2000E+02
  -8.985  0.6036E-26  0.2000E+02
  -8.975  0.4520E-26  0.2000E+02
  -8.965  0.3382E-26  0.2000E+02
  -8.955  0.2529E-26  0.2000E+02
  -8.945  0.1890E-26  0.2000E+02
  -8.935  0.1411E-26  0.2000E+02
  -8.925  0.1053E-26  0.2000E+02
  -8.915  0.7855E-27  0.2000E+02
  -8.905  0.5854E-27  0.2000E+02
  -8.895  0.4360E-27  0.2000E+02
  -8.885  0.3245E-27  0.2000E+02
  -8.875  0.2414E-27  0.2000E+02
  -8.865  0.1794E-27  0.2000E+02
  -8.855  0.1333E-27  0.2000E+02
  -8.845  0.9891E-28  0.2000E+02
  -8.835  0.7337E-28  0.2000E+02
  -8.825  0.5439E-28  0.2000E+02
  -8.815  0.4029E-28  0.2000E+02
  -8.805  0.2983E-28  0.2000E+02
  -8.795  0.2206E-28  0.2000E+02
  -8.785  0.1631E-28  0.2000E+02
  -8.775  0.1205E-28  0.2000E+02
  -8.765  0.8897E-29  0.2000E+02
  -8.755  0.6564E-29  0.2000E+02
  -8.745  0.4840E-29  0.2000E+02
  -8.735  0.3566E-29  0.2000E+02
  -8.725  0.2626E-29  0.2000E+02
  -8.715  0.1932E-29  0.2000E+02
  -8.705  0.1421E-29  0.2000E+02
  -8.695  0.1044E-29  0.2000E+02
  -8.685  0.7666E-30  0.2000E+02
  -8.675  0.5626E-30  0.2000E+02
  -8.665  0.4126E-30  0.2000E+02
  -8.655  0.3023E-30  0.2000E+02
  -8.645  0.2214E-30  0.2000E+02
  -8.635  0.1621E-30  0.2000E+02
  -8.625  0.1185E-30  0.2000E+02
  -8.615  0.8662E-31  0.2000E+02
  -8.605  0.6327E-31  0.2000E+02
  -8.595  0.4618E-31  0.2000E+02
  -8.585  0.3368E-31  0.2000E+02
  -8.575  0.2455E-31  0.2000E+02
  -8.565  0.1789E-31  0.2000E+02
  -8.555  0.1302E-31  0.2000E+02
  -8.545  0.9471E-32  0.2000E+02
  -8.535  0.6885E-32  0.2000E+02
  -8.525  0.5002E-32  0.2000E+02
  -8.515  0.3631E-32  0.2000E+02
  -8.505  0.2634E-32  0.2000E+02
  -8.495  0.1910E-32  0.2000E+02
  -8.485  0.1384E-32  0.2000E+02
  -8.475  0.1002E-32  0.2000E+02
  -8.465  0.7249E-33  0.2000E+02
  -8.455  0.5241E-33  0.2000E+02
  -8.445  0.3787E-33  0.2000E+02
  -8.435  0.2735E-33  0.2000E+02
  -8.425  0.1973E-33  0.2000E+02
  -8.415  0.1423E-33  0.2000E+02
  -8.405  0.1025E-33  0.2000E+02
  -8.395  0.7385E-34  0.2000E+02
  -8.385  0.5315E-34  0.2000E+02
  -8.375  0.3822E-34  0.2000E+02
  -8.365  0.2747E-34  0.2000E+02
  -8.355  0.1973E-34  0.2000E+02
  -8.345  0.1416E-34  0.2000E+02
  -8.335  0.1016E-34  0.2000E+02
  -8.325  0.7279E-35  0.2000E+02
  -8.315  0.5214E-35  0.2000E+02
  -8.305  0.3732E-35  0.2000E+02
  -8.295  0.2670E-35  0.2000E+02
  -8.285  0.1908E-35  0.2000E+02
  -8.275  0.1363E-35  0.2000E+02
  -8.265  0.9731E-36  0.2000E+02
  -8.255  0.6942E-36  0.2000E+02
  -8.245  0.4949E-36  0.2000E+02
  -8.235  0.3526E-36  0.2000E+02
  -8.225  0.2510E-36  0.2000E+02
  -8.215  0.1786E-36  0.2000E+02
  -8.205  0.1270E-36  0.2000E+02
  -8.195  0.9022E-37  0.2000E+02
  -8.185  0.6406E-37  0.2000E+02
  -8.175  0.4545E-37  0.2000E+02
  -8.165  0.3223E-37  0.2000E+02
  -8.155  0.2284E-37  0.2000E+02
  -8.145  0.1617E-37  0.2000E+02
  -8.135  0.1144E-37  0.2000E+02
  -8.125  0.8093E-38  0.2000E+02
  -8.115  0.5719E-38  0.2000E+02
  -8.105  0.4039E-38  0.2000E+02
  -8.095  0.2851E-38  0.2000E+02
  -8.085  0.2010E-38  0.2000E+02
  -8.075  0.1417E-38  0.2000E+02
  -8.065  0.9980E-39  0.2000E+02
  -8.055  0.7024E-39  0.2000E+02
  -8.045  0.4941E-39  0.2000E+02
  -8.035  0.3473E-39  0.2000E+02
  -8.025  0.2439E-39  0.2000E+02
  -8.015  0.1712E-39  0.2000E+02
  -8.005  0.1201E-39  0.2000E+02
  -7.995  0.8422E-40  0.2000E+02
  -7.985  0.5901E-40  0.2000E+02
  -7.975  0.4133E-40  0.2000E+02
  -7.965  0.2894E-40  0.2000E+02
  -7.955  0.2027E-40  0.2000E+02
  -7.945  0.1422E-40  0.2000E+02
  -7.935  0.1001E-40  0.2000E+02
  -7.925  0.7095E-41  0.2000E+02
  -7.915  0.5109E-41  0.2000E+02
  -7.905  0.3790E-41  0.2000E+02
  -7.895  0.2968E-41  0.2000E+02
  -7.885  0.2533E-41  0.2000E+02
  -7.875  0.2427E-41  0.2000E+02
  -7.865  0.2633E-41  0.2000E+02
  -7.855  0.3173E-41  0.2000E+02
  -7.845  0.4111E-41  0.2000E+02
  -7.835  0.5559E-41  0.2000E+02
  -7.825  0.7694E-41  0.2000E+02
  -7.815  0.1077E-40  0.2000E+02
  -7.805  0.1516E-40  0.2000E+02
  -7.795  0.2139E-40  0.2000E+02
  -7.785  0.3021E-40  0.2000E+02
  -7.775  0.4267E-40  0.2000E+02
  -7.765  0.6024E-40  0.2000E+02
  -7.755  0.8500E-40  0.2000E+02
  -7.745  0.1199E-39  0.2000E+02
  -7.735  0.1690E-39  0.2000E+02
  -7.725  0.2380E-39  0.2000E+02
  -7.715  0.3350E-39  0.2000E+02
  -7.705  0.4712E-39  0.2000E+02
  -7.695  0.6623E-39  0.2000E+02
  -7.685  0.9304E-39  0.2000E+02
  -7.675  0.1306E-38  0.2000E+02
  -7.665  0.1832E-38  0.2000E+02
  -7.655  0.2569E-38  0.2000E+02
  -7.645  0.3599E-38  0.2000E+02
  -7.635  0.5039E-38  0.2000E+02
  -7.625  0.7050E-38  0.2000E+02
  -7.615  0.9857E-38  0.2000E+02
  -7.605  0.1377E-37  0.2000E+02
  -7.595  0.1923E-37  0.2000E+02
  -7.585  0.2684E-37  0.2000E+02
  -7.575  0.3742E-37  0.2000E+02
  -7.565  0.5215E-37  0.2000E+02
  -7.555  0.7262E-37  0.2000E+02
  -7.545  0.1011E-36  0.2000E+02
  -7.535  0.1406E-36  0.2000E+02
  -7.525  0.1953E-36  0.2000E+02
  -7.515  0.2713E-36  0.2000E+02
  -7.505  0.3765E-36  0.2000E+02
  -7.495  0.5223E-36  0.2000E+02
  -7.485  0.7239E-36  0.2000E+02
  -7.475  0.1003E-35  0.2000E+02
  -7.465  0.1388E-35  0.2000E+02
  -7.455  0.1920E-35  0.2000E+02
  -7.445  0.2654E-35  0.2000E+02
  -7.435  0.3667E-35  0.2000E+02
  -7.425  0.5062E-35  0.2000E+02
  -7.415  0.6984E-35  0.2000E+02
  -7.405  0.9628E-35  0.2000E+02
  -7.395  0.1327E-34  0.2000E+02
  -7.385  0.1826E-34  0.2000E+02
  -7.375  0.2513E-34  0.2000E+02
  -7.365  0.3455E-34  0.2000E+02
  -7.355  0.4748E-34  0.2000E+02
  -7.345  0.6520E-34  0.2000E+02
  -7.335  0.8947E-34  0.2000E+02
  -7.325  0.1227E-33  0.2000E+02
  -7.315  0.1681E-33  0.2000E+02
  -7.305  0.2303E-33  0.2000E+02
  -7.295  0.3151E-33  0.2000E+02
  -7.285  0.4310E-33  0.2000E+02
  -7.275  0.5891E-33  0.2000E+02
  -7.265  0.8046E-33  0.2000E+02
  -7.255  0.1098E-32  0.2000E+02
  -7.245  0.1498E-32  0.2000E+02
  -7.235  0.2042E-32  0.2000E+02
  -7.225  0.2782E-32  0.2000E+02
  -7.215  0.3786E-32  0.2000E+02
  -7.205  0.5151E-32  0.2000E+02
  -7.195  0.7003E-32  0.2000E+02
  -7.185  0.9513E-32  0.2000E+02
  -7.175  0.1292E-31  0.2000E+02
  -7.165  0.1752E-31  0.2000E+02
  -7.155  0.2376E-31  0.2000E+02
  -7.145  0.3219E-31  0.2000E+02
  -7.135  0.4359E-31  0.2000E+02
  -7.125  0.5898E-31  0.2000E+02
  -7.115  0.7976E-31  0.2000E+02
  -7.105  0.1078E-30  0.2000E+02
  -7.095  0.1455E-30  0.2000E+02
  -7.085  0.1964E-30  0.2000E+02
  -7.075  0.2649E-30  0.2000E+02
  -7.065  0.3570E-30  0.2000E+02
  -7.055  0.4808E-30  0.2000E+02
  -7.045  0.6471E-30  0.2000E+02
  -7.035  0.8704E-30  0.2000E+02
  -7.025  0.1170E-29  0.2000E+02
  -7.015  0.1571E-29  0.2000E+02
  -7.005  0.2109E-29  0.2000E+02
  -6.995  0.2830E-29  0.2000E+02
  -6.985  0.3793E-29  0.2000E+02
  -6.975  0.5082E-29  0.2000E+02
  -6.965  0.6803E-29  0.2000E+02
  -6.955  0.9101E-29  0.2000E+02
  -6.945  0.1217E-28  0.2000E+02
  -6.935  0.1626E-28  0.2000E+02
  -6.925  0.2171E-28  0.2000E+02
  -6.915  0.2896E-28  0.2000E+02
  -6.905  0.3862E-28  0.2000E+02
  -6.895  0.5146E-28  0.2000E+02
  -6.885  0.6853E-28  0.2000E+02
  -6.875  0.9119E-28  0.2000E+02
  -6.865  0.1213E-27  0.2000E+02
  -6.855  0.1612E-27  0.2000E+02
  -6.845  0.2140E-27  0.2000E+02
  -6.835  0.2841E-27  0.2000E+02
  -6.825  0.3767E-27  0.2000E+02
  -6.815  0.4993E-27  0.2000E+02
  -6.805  0.6614E-27  0.2000E+02
  -6.795  0.8755E-27  0.2000E+02
  -6.785  0.1158E-26  0.2000E+02
  -6.775  0.1531E-26  0.2000E+02
  -6.765  0.2022E-26  0.2000E+02
  -6.755  0.2670E-26  0.2000E+02
  -6.745  0.3522E-26  0.2000E+02
  -6.735  0.4643E-26  0.2000E+02
  -6.725  0.6117E-26  0.2000E+02
  -6.715  0.8054E-26  0.2000E+02
  -6.705  0.1060E-25  0.2000E+02
  -6.695  0.1393E-25  0.2000E+02
  -6.685  0.1831E-25  0.2000E+02
  -6.675  0.2404E-25  0.2000E+02
  -6.665  0.3155E-25  0.2000E+02
  -6.655  0.4137E-25  0.2000E+02
  -6.645  0.5421E-25  0.2000E+02
  -6.635  0.7100E-25  0.2000E+02
  -6.625  0.9292E-25  0.2000E+02
  -6.615  0.1215E-24  0.2000E+02
  -6.605  0.1588E-24  0.2000E+02
  -6.595  0.2075E-24  0.2000E+02
  -6.585  0.2708E-24  0.2000E+02
  -6.575  0.3532E-24  0.2000E+02
  -6.565  0.4604E-24  0.2000E+02
  -6.555  0.5997E-24  0.2000E+02
  -6.545  0.7807E-24  0.2000E+02
  -6.535  0.1016E-23  0.2000E+02
  -6.525  0.1320E-23  0.2000E+02
  -6.515  0.1715E-23  0.2000E+02
  -6.505  0.2227E-23  0.2000E+02
  -6.495  0.2890E-23  0.2000E+02
  -6.485  0.3747E-23  0.2000E+02
  -6.475  0.4855E-23  0.2000E+02
  -6.465  0.6286E-23  0.2000E+02
  -6.455  0.8135E-23  0.2000E+02
  -6.445  0.1052E-22  0.2000E+02
  -6.435  0.1359E-22  0.2000E+02
  -6.425  0.1756E-22  0.2000E+02
  -6.415  0.2266E-22  0.2000E+02
  -6.405  0.2922E-22  0.2000E+02
  -6.395  0.3766E-22  0.2000E+02
  -6.385  0.4851E-22  0.2000E+02
  -6.375  0.6244E-22  0.2000E+02
  -6.365  0.8031E-22  0.2000E+02
  -6.355  0.1032E-21  0.2000E+02
  -6.345  0.1326E-21  0.2000E+02
  -6.335  0.1702E-21  0.2000E+02
  -6.325  0.2184E-21  0.2000E+02
  -6.315  0.2800E-21  0.2000E+02
  -6.305  0.3587E-21  0.2000E+02
  -6.295  0.4593E-21  0.2000E+02
  -6.285  0.5876E-21  0.2000E+02
  -6.275  0.7513E-21  0.2000E+02
  -6.265  0.9600E-21  0.2000E+02
  -6.255  0.1226E-20  0.2000E+02
  -6.245  0.1564E-20  0.2000E+02
  -6.235  0.1995E-20  0.2000E+02
  -6.225  0.2542E-20  0.2000E+02
  -6.215  0.3238E-20  0.2000E+02
  -6.205  0.4120E-20  0.2000E+02
  -6.195  0.5241E-20  0.2000E+02
  -6.185  0.6661E-20  0.2000E+02
  -6.175  0.8460E-20  0.2000E+02
  -6.165  0.1074E-19  0.2000E+02
  -6.155  0.1362E-19  0.2000E+02
  -6.145  0.1727E-19  0.2000E+02
  -6.135  0.2187E-19  0.2000E+02
  -6.125  0.2769E-19  0.2000E+02
  -6.115  0.3503E-19  0.2000E+02
  -6.105  0.4429E-19  0.2000E+02
  -6.095  0.5596E-19  0.2000E+02
  -6.085  0.7065E-19  0.2000E+02
  -6.075  0.8914E-19  0.2000E+02
  -6.065  0.1124E-18  0.2000E+02
  -6.055  0.1416E-18  0.2000E+02
  -6.045  0.1784E-18  0.2000E+02
  -6.035  0.2244E-18  0.2000E+02
  -6.025  0.2823E-18  0.2000E+02
  -6.015  0.3547E-18  0.2000E+02
  -6.005  0.4455E-18  0.2000E+02
  -5.995  0.5591E-18  0.2000E+02
  -5.985  0.7013E-18  0.2000E+02
  -5.975  0.8790E-18  0.2000E+02
  -5.965  0.1101E-17  0.2000E+02
  -5.955  0.1378E-17  0.2000E+02
  -5.945  0.1724E-17  0.2000E+02
  -5.935  0.2155E-17  0.2000E+02
  -5.925  0.2693E-17  0.2000E+02
  -5.915  0.3361E-17  0.2000E+02
  -5.905  0.4194E-17  0.2000E+02
  -5.895  0.5229E-17  0.2000E+02
  -5.885  0.6515E-17  0.2000E+02
  -5.875  0.8112E-17  0.2000E+02
  -5.865  0.1009E-16  0.2000E+02
  -5.855  0.1255E-16  0.2000E+02
  -5.845  0.1560E-16  0.2000E+02
  -5.835  0.1937E-16  0.2000E+02
  -5.825  0.2404E-16  0.2000E+02
  -5.815  0.2981E-16  0.2000E+02
  -5.805  0.3695E-16  0.2000E+02
  -5.795  0.4577E-16  0.2000E+02
  -5.785  0.5665E-16  0.2000E+02
  -5.775  0.7007E-16  0.2000E+02
  -5.765  0.8662E-16  0.2000E+02
  -5.755  0.1070E-15  0.2000E+02
  -5.745  0.1321E-15  0.2000E+02
  -5.735  0.1630E-15  0.2000E+02
  -5.725  0.2009E-15  0.2000E+02
  -5.715  0.2475E-15  0.2000E+02
  -5.705  0.3048E-15  0.2000E+02
  -5.695  0.3750E-15  0.2000E+02
  -5.685  0.4611E-15  0.2000E+02
  -5.675  0.5666E-15  0.2000E+02
  -5.665  0.6957E-15  0.2000E+02
  -5.655  0.8538E-15  0.2000E+02
  -5.645  0.1047E-14  0.2000E+02
  -5.635  0.1283E-14  0.2000E+02
  -5.625  0.1572E-14  0.2000E+02
  -5.615  0.1924E-14  0.2000E+02
  -5.605  0.2353E-14  0.2000E+02
  -5.595  0.2876E-14  0.2000E+02
  -5.585  0.3513E-14  0.2000E+02
  -5.575  0.4288E-14  0.2000E+02
  -5.565  0.5231E-14  0.2000E+02
  -5.555  0.6378E-14  0.2000E+02
  -5.545  0.7770E-14  0.2000E+02
  -5.535  0.9460E-14  0.2000E+02
  -5.525  0.1151E-13  0.2000E+02
  -5.515  0.1399E-13  0.2000E+02
  -5.505  0.1701E-13  0.2000E+02
  -5.495  0.2065E-13  0.2000E+02
  -5.485  0.2506E-13  0.2000E+02
  -5.475  0.3039E-13  0.2000E+02
  -5.465  0.3683E-13  0.2000E+02
  -5.455  0.4460E-13  0.2000E+02
  -5.445  0.5398E-13  0.2000E+02
  -5.435  0.6529E-13  0.2000E+02
  -5.425  0.7892E-13  0.2000E+02
  -5.415  0.9533E-13  0.2000E+02
  -5.405  0.1151E-12  0.2000E+02
  -5.395  0.1388E-12  0.2000E+02
  -5.385  0.1674E-12  0.2000E+02
  -5.375  0.2016E-12  0.2000E+02
  -5.365  0.2427E-12  0.2000E+02
  -5.355  0.2921E-12  0.2000E+02
  -5.345  0.3512E-12  0.2000E+02
  -5.335  0.4220E-12  0.2000E+02
  -5.325  0.5067E-12  0.2000E+02
  -5.315  0.6081E-12  0.2000E+02
  -5.305  0.7292E-12  0.2000E+02
  -5.295  0.8739E-12  0.2000E+02
  -5.285  0.1047E-11  0.2000E+02
  -5.275  0.1253E-11  0.2000E+02
  -5.265  0.1498E-11  0.2000E+02
  -5.255  0.1791E-11  0.2000E+02
  -5.245  0.2139E-11  0.2000E+02
  -5.235  0.2554E-11  0.2000E+02
  -5.225  0.3047E-11  0.2000E+02
  -5.215  0.3632E-11  0.2000E+02
  -5.205  0.4328E-11  0.2000E+02
  -5.195  0.5152E-11  0.2000E+02
  -5.185  0.6131E-11  0.2000E+02
  -5.175  0.7290E-11  0.2000E+02
  -5.165  0.8662E-11  0.2000E+02
  -5.155  0.1029E-10  0.2000E+02
  -5.145  0.1221E-10  0.2000E+02
  -5.135  0.1448E-10  0.2000E+02
  -5.125  0.1716E-10  0.2000E+02
  -5.115  0.2032E-10  0.2000E+02
  -5.105  0.2405E-10  0.2000E+02
  -5.095  0.2845E-10  0.2000E+02
  -5.085  0.3363E-10  0.2000E+02
  -5.075  0.3973E-10  0.2000E+02
  -5.065  0.4691E-10  0.2000E+02
  -5.055  0.5534E-10  0.2000E+02
  -5.045  0.6524E-10  0.2000E+02
  -5.035  0.7687E-10  0.2000E+02
  -5.025  0.9052E-10  0.2000E+02
  -5.015  0.1065E-09  0.2000E+02
  -5.005  0.1253E-09  0.2000E+02
  -4.995  0.1472E-09  0.2000E+02
  -4.985  0.1729E-09  0.2000E+02
  -4.975  0.2029E-09  0.2000E+02
  -4.965  0.2380E-09  0.2000E+02
  -4.955  0.2789E-09  0.2000E+02
  -4.945  0.3267E-09  0.2000E+02
  -4.935  0.3824E-09  0.2000E+02
  -4.925  0.4474E-09  0.2000E+02
  -4.915  0.5230E-09  0.2000E+02
  -4.905  0.6111E-09  0.2000E+02
  -4.895  0.7134E-09  0.2000E+02
  -4.885  0.8324E-09  0.2000E+02
  -4.875  0.9707E-09  0.2000E+02
  -4.865  0.1131E-08  0.2000E+02
  -4.855  0.1317E-08  0.2000E+02
  -4.845  0.1533E-08  0.2000E+02
  -4.835  0.1783E-08  0.2000E+02
  -4.825  0.2072E-08  0.2000E+02
  -4.815  0.2407E-08  0.2000E+02
  -4.805  0.2794E-08  0.2000E+02
  -4.795  0.3241E-08  0.2000E+02
  -4.785  0.3757E-08  0.2000E+02
  -4.775  0.4352E-08  0.2000E+02
  -4.765  0.5039E-08  0.2000E+02
  -4.755  0.5830E-08  0.2000E+02
  -4.745  0.6741E-08  0.2000E+02
  -4.735  0.7789E-08  0.2000E+02
  -4.725  0.8995E-08  0.2000E+02
  -4.715  0.1038E-07  0.2000E+02
  -4.705  0.1197E-07  0.2000E+02
  -4.695  0.1380E-07  0.2000E+02
  -4.685  0.1589E-07  0.2000E+02
  -4.675  0.1829E-07  0.2000E+02
  -4.665  0.2104E-07  0.2000E+02
  -4.655  0.2419E-07  0.2000E+02
  -4.645  0.2779E-07  0.2000E+02
  -4.635  0.3190E-07  0.2000E+02
  -4.625  0.3660E-07  0.2000E+02
  -4.615  0.4197E-07  0.2000E+02
  -4.605  0.4809E-07  0.2000E+02
  -4.595  0.5507E-07  0.2000E+02
  -4.585  0.6303E-07  0.2000E+02
  -4.575  0.7208E-07  0.2000E+02
  -4.565  0.8239E-07  0.2000E+02
  -4.555  0.9410E-07  0.2000E+02
  -4.545  0.1074E-06  0.2000E+02
  -4.535  0.1225E-06  0.2000E+02
  -4.525  0.1397E-06  0.2000E+02
  -4.515  0.1591E-06  0.2000E+02
  -4.505  0.1812E-06  0.2000E+02
  -4.495  0.2062E-06  0.2000E+02
  -4.485  0.2344E-06  0.2000E+02
  -4.475  0.2664E-06  0.2000E+02
  -4.465  0.3025E-06  0.2000E+02
  -4.455  0.3433E-06  0.2000E+02
  -4.445  0.3894E-06  0.2000E+02
  -4.435  0.4414E-06  0.2000E+02
  -4.425  0.5000E-06  0.2000E+02
  -4.415  0.5660E-06  0.2000E+02
  -4.405  0.6403E-06  0.2000E+02
  -4.395  0.7239E-06  0.2000E+02
  -4.385  0.8179E-06  0.2000E+02
  -4.375  0.9236E-06  0.2000E+02
  -4.365  0.1042E-05  0.2000E+02
  -4.355  0.1175E-05  0.2000E+02
  -4.345  0.1325E-05  0.2000E+02
  -4.335  0.1492E-05  0.2000E+02
  -4.325  0.1679E-05  0.2000E+02
  -4.315  0.1889E-05  0.2000E+02
  -4.305  0.2123E-05  0.2000E+02
  -4.295  0.2385E-05  0.2000E+02
  -4.285  0.2678E-05  0.2000E+02
  -4.275  0.3005E-05  0.2000E+02
  -4.265  0.3369E-05  0.2000E+02
  -4.255  0.3776E-05  0.2000E+02
  -4.245  0.4228E-05  0.2000E+02
  -4.235  0.4732E-05  0.2000E+02
  -4.225  0.5293E-05  0.2000E+02
  -4.215  0.5917E-05  0.2000E+02
  -4.205  0.6609E-05  0.2000E+02
  -4.195  0.7378E-05  0.2000E+02
  -4.185  0.8232E-05  0.2000E+02
  -4.175  0.9178E-05  0.2000E+02
  -4.165  0.1023E-04  0.2000E+02
  -4.155  0.1139E-04  0.2000E+02
  -4.145  0.1267E-04  0.2000E+02
  -4.135  0.1410E-04  0.2000E+02
  -4.125  0.1567E-04  0.2000E+02
  -4.115  0.1740E-04  0.2000E+02
  -4.105  0.1932E-04  0.2000E+02
  -4.095  0.2143E-04  0.2000E+02
  -4.085  0.2376E-04  0.2000E+02
  -4.075  0.2633E-04  0.2000E+02
  -4.065  0.2916E-04  0.2000E+02
  -4.055  0.3227E-04  0.2000E+02
  -4.045  0.3568E-04  0.2000E+02
  -4.035  0.3944E-04  0.2000E+02
  -4.025  0.4357E-04  0.2000E+02
  -4.015  0.4809E-04  0.2000E+02
  -4.005  0.5306E-04  0.2000E+02
  -3.995  0.5850E-04  0.2000E+02
  -3.985  0.6446E-04  0.2000E+02
  -3.975  0.7098E-04  0.2000E+02
  -3.965  0.7811E-04  0.2000E+02
  -3.955  0.8591E-04  0.2000E+02
  -3.945  0.9443E-04  0.2000E+02
  -3.935  0.1037E-03  0.2000E+02
  -3.925  0.1139E-03  0.2000E+02
  -3.915  0.1249E-03  0.2000E+02
  -3.905  0.1370E-03  0.2000E+02
  -3.895  0.1501E-03  0.2000E+02
  -3.885  0.1644E-03  0.2000E+02
  -3.875  0.1799E-03  0.2000E+02
  -3.865  0.1968E-03  0.2000E+02
  -3.855  0.2151E-03  0.2000E+02
  -3.845  0.2350E-03  0.2000E+02
  -3.835  0.2565E-03  0.2000E+02
  -3.825  0.2799E-03  0.2000E+02
  -3.815  0.3052E-03  0.2000E+02
  -3.805  0.3326E-03  0.2000E+02
  -3.795  0.3623E-03  0.2000E+02
  -3.785  0.3943E-03  0.2000E+02
  -3.775  0.4290E-03  0.2000E+02
  -3.765  0.4664E-03  0.2000E+02
  -3.755  0.5067E-03  0.2000E+02
  -3.745  0.5502E-03  0.2000E+02
  -3.735  0.5971E-03  0.2000E+02
  -3.725  0.6476E-03  0.2000E+02
  -3.715  0.7020E-03  0.2000E+02
  -3.705  0.7604E-03  0.2000E+02
  -3.695  0.8232E-03  0.2000E+02
  -3.685  0.8907E-03  0.2000E+02
  -3.675  0.9631E-03  0.2000E+02
  -3.665  0.1041E-02  0.2000E+02
  -3.655  0.1124E-02  0.2000E+02
  -3.645  0.1213E-02  0.2000E+02
  -3.635  0.1309E-02  0.2000E+02
  -3.625  0.1411E-02  0.2000E+02
  -3.615  0.1521E-02  0.2000E+02
  -3.605  0.1638E-02  0.2000E+02
  -3.595  0.1762E-02  0.2000E+02
  -3.585  0.1896E-02  0.2000E+02
  -3.575  0.2038E-02  0.2000E+02
  -3.565  0.2189E-02  0.2000E+02
  -3.555  0.2351E-02  0.2000E+02
  -3.545  0.2523E-02  0.2000E+02
  -3.535  0.2705E-02  0.2000E+02
  -3.525  0.2900E-02  0.2000E+02
  -3.515  0.3106E-02  0.2000E+02
  -3.505  0.3326E-02  0.2000E+02
  -3.495  0.3559E-02  0.2000E+02
  -3.485  0.3806E-02  0.2000E+02
  -3.475  0.4067E-02  0.2000E+02
  -3.465  0.4345E-02  0.2000E+02
  -3.455  0.4638E-02  0.2000E+02
  -3.445  0.4949E-02  0.2000E+02
  -3.435  0.5277E-02  0.2000E+02
  -3.425  0.5624E-02  0.2000E+02
  -3.415  0.5990E-02  0.2000E+02
  -3.405  0.6377E-02  0.2000E+02
  -3.395  0.6785E-02  0.2000E+02
  -3.385  0.7214E-02  0.2000E+02
  -3.375  0.7667E-02  0.2000E+02
  -3.365  0.8144E-02  0.2000E+02
  -3.355  0.8645E-02  0.2000E+02
  -3.345  0.9172E-02  0.2000E+02
  -3.335  0.9726E-02  0.2000E+02
  -3.325  0.1031E-01  0.2000E+02
  -3.315  0.1092E-01  0.2000E+02
  -3.305  0.1156E-01  0.2000E+02
  -3.295  0.1223E-01  0.2000E+02
  -3.285  0.1293E-01  0.2000E+02
  -3.275  0.1367E-01  0.2000E+02
  -3.265  0.1444E-01  0.2000E+02
  -3.255  0.1524E-01  0.2000E+02
  -3.245  0.1609E-01  0.2000E+02
  -3.235  0.1696E-01  0.2000E+02
  -3.225  0.1788E-01  0.2000E+02
  -3.215  0.1884E-01  0.2000E+02
  -3.205  0.1984E-01  0.2000E+02
  -3.195  0.2087E-01  0.2000E+02
  -3.185  0.2196E-01  0.2000E+02
  -3.175  0.2308E-01  0.2000E+02
  -3.165  0.2425E-01  0.2000E+02
  -3.155  0.2547E-01  0.2000E+02
  -3.145  0.2673E-01  0.2000E+02
  -3.135  0.2805E-01  0.2001E+02
  -3.125  0.2941E-01  0.2001E+02
  -3.115  0.3082E-01  0.2001E+02
  -3.105  0.3228E-01  0.2001E+02
  -3.095  0.3380E-01  0.2001E+02
  -3.085  0.3537E-01  0.2001E+02
  -3.075  0.3699E-01  0.2001E+02
  -3.065  0.3867E-01  0.2001E+02
  -3.055  0.4040E-01  0.2001E+02
  -3.045  0.4219E-01  0.2001E+02
  -3.035  0.4404E-01  0.2001E+02
  -3.025  0.4595E-01  0.2001E+02
  -3.015  0.4791E-01  0.2001E+02
  -3.005  0.4994E-01  0.2001E+02
  -2.995  0.5202E-01  0.2001E+02
  -2.985  0.5417E-01  0.2001E+02
  -2.975  0.5638E-01  0.2001E+02
  -2.965  0.5865E-01  0.2001E+02
  -2.955  0.6098E-01  0.2001E+02
  -2.945  0.6337E-01  0.2001E+02
  -2.935  0.6583E-01  0.2001E+02
  -2.925  0.6835E-01  0.2001E+02
  -2.915  0.7094E-01  0.2002E+02
  -2.905  0.7359E-01  0.2002E+02
  -2.895  0.7630E-01  0.2002E+02
  -2.885  0.7908E-01  0.2002E+02
  -2.875  0.8192E-01  0.2002E+02
  -2.865  0.8482E-01  0.2002E+02
  -2.855  0.8779E-01  0.2002E+02
  -2.845  0.9082E-01  0.2002E+02
  -2.835  0.9392E-01  0.2002E+02
  -2.825  0.9708E-01  0.2002E+02
  -2.815  0.1003E+00  0.2002E+02
  -2.805  0.1036E+00  0.2003E+02
  -2.795  0.1069E+00  0.2003E+02
  -2.785  0.1103E+00  0.2003E+02
  -2.775  0.1138E+00  0.2003E+02
  -2.765  0.1173E+00  0.2003E+02
  -2.755  0.1209E+00  0.2003E+02
  -2.745  0.1246E+00  0.2003E+02
  -2.735  0.1283E+00  0.2003E+02
  -2.725  0.1320E+00  0.2003E+02
  -2.715  0.1358E+00  0.2004E+02
  -2.705  0.1397E+00  0.2004E+02
  -2.695  0.1436E+00  0.2004E+02
  -2.685  0.1476E+00  0.2004E+02
  -2.675  0.1516E+00  0.2004E+02
  -2.665  0.1557E+00  0.2004E+02
  -2.655  0.1598E+00  0.2005E+02
  -2.645  0.1640E+00  0.2005E+02
  -2.635  0.1682E+00  0.2005E+02
  -2.625  0.1725E+00  0.2005E+02
  -2.615  0.1768E+00  0.2005E+02
  -2.605  0.1812E+00  0.2005E+02
  -2.595  0.1856E+00  0.2006E+02
  -2.585  0.1900E+00  0.2006E+02
  -2.575  0.1945E+00  0.2006E+02
  -2.565  0.1990E+00  0.2006E+02
  -2.555  0.2035E+00  0.2006E+02
  -2.545  0.2081E+00  0.2007E+02
  -2.535  0.2127E+00  0.2007E+02
  -2.525  0.2174E+00  0.2007E+02
  -2.515  0.2220E+00  0.2007E+02
  -2.505  0.2267E+00  0.2007E+02
  -2.495  0.2315E+00  0.2008E+02
  -2.485  0.2362E+00  0.2008E+02
  -2.475  0.2410E+00  0.2008E+02
  -2.465  0.2458E+00  0.2008E+02
  -2.455  0.2506E+00  0.2009E+02
  -2.445  0.2555E+00  0.2009E+02
  -2.435  0.2603E+00  0.2009E+02
  -2.425  0.2652E+00  0.2009E+02
  -2.415  0.2701E+00  0.2010E+02
  -2.405  0.2750E+00  0.2010E+02
  -2.395  0.2800E+00  0.2010E+02
  -2.385  0.2849E+00  0.2011E+02
  -2.375  0.2898E+00  0.2011E+02
  -2.365  0.2948E+00  0.2011E+02
  -2.355  0.2998E+00  0.2011E+02
  -2.345  0.3047E+00  0.2012E+02
  -2.335  0.3097E+00  0.2012E+02
  -2.325  0.3147E+00  0.2012E+02
  -2.315  0.3197E+00  0.2013E+02
  -2.305  0.3247E+00  0.2013E+02
  -2.295  0.3297E+00  0.2013E+02
  -2.285  0.3347E+00  0.2014E+02
  -2.275  0.3397E+00  0.2014E+02
  -2.265  0.3447E+00  0.2014E+02
  -2.255  0.3497E+00  0.2015E+02
  -2.245  0.3547E+00  0.2015E+02
  -2.235  0.3598E+00  0.2015E+02
  -2.225  0.3648E+00  0.2016E+02
  -2.215  0.3698E+00  0.2016E+02
  -2.205  0.3748E+00  0.2017E+02
  -2.195  0.3798E+00  0.2017E+02
  -2.185  0.3848E+00  0.2017E+02
  -2.175  0.3898E+00  0.2018E+02
  -2.165  0.3948E+00  0.2018E+02
  -2.155  0.3998E+00  0.2018E+02
  -2.145  0.4048E+00  0.2019E+02
  -2.135  0.4098E+00  0.2019E+02
  -2.125  0.4148E+00  0.2020E+02
  -2.115  0.4197E+00  0.2020E+02
  -2.105  0.4247E+00  0.2021E+02
  -2.095  0.4297E+00  0.2021E+02
  -2.085  0.4347E+00  0.2021E+02
  -2.075  0.4397E+00  0.2022E+02
  -2.065  0.4447E+00  0.2022E+02
  -2.055  0.4496E+00  0.2023E+02
  -2.045  0.4546E+00  0.2023E+02
  -2.035  0.4596E+00  0.2024E+02
  -2.025  0.4646E+00  0.2024E+02
  -2.015  0.4696E+00  0.2025E+02
  -2.005  0.4745E+00  0.2025E+02
  -1.995  0.4795E+00  0.2026E+02
  -1.985  0.4845E+00  0.2026E+02
  -1.975  0.4895E+00  0.2027E+02
  -1.965  0.4945E+00  0.2027E+02
  -1.955  0.4995E+00  0.2028E+02
  -1.945  0.5045E+00  0.2028E+02
  -1.935  0.5095E+00  0.2029E+02
  -1.925  0.5145E+00  0.2029E+02
  -1.915  0.5196E+00  0.2030E+02
  -1.905  0.5246E+00  0.2030E+02
  -1.895  0.5296E+00  0.2031E+02
  -1.885  0.5347E+00  0.2031E+02
  -1.875  0.5397E+00  0.2032E+02
  -1.865  0.5448E+00  0.2032E+02
  -1.855  0.5499E+00  0.2033E+02
  -1.845  0.5550E+00  0.2033E+02
  -1.835  0.5601E+00  0.2034E+02
  -1.825  0.5652E+00  0.2034E+02
  -1.815  0.5703E+00  0.2035E+02
  -1.805  0.5754E+00  0.2036E+02
  -1.795  0.5806E+00  0.2036E+02
  -1.785  0.5857E+00  0.2037E+02
  -1.775  0.5909E+00  0.2037E+02
  -1.765  0.5961E+00  0.2038E+02
  -1.755  0.6013E+00  0.2039E+02
  -1.745  0.6065E+00  0.2039E+02
  -1.735  0.6118E+00  0.2040E+02
  -1.725  0.6170E+00  0.2040E+02
  -1.715  0.6223E+00  0.2041E+02
  -1.705  0.6275E+00  0.2042E+02
  -1.695  0.6328E+00  0.2042E+02
  -1.685  0.6381E+00  0.2043E+02
  -1.675  0.6435E+00  0.2044E+02
  -1.665  0.6488E+00  0.2044E+02
  -1.655  0.6541E+00  0.2045E+02
  -1.645  0.6595E+00  0.2046E+02
  -1.635  0.6649E+00  0.2046E+02
  -1.625  0.6703E+00  0.2047E+02
  -1.615  0.6757E+00  0.2048E+02
  -1.605  0.6811E+00  0.2048E+02
  -1.595  0.6865E+00  0.2049E+02
  -1.585  0.6919E+00  0.2050E+02
  -1.575  0.6973E+00  0.2050E+02
  -1.565  0.7028E+00  0.2051E+02
  -1.555  0.7082E+00  0.2052E+02
  -1.545  0.7136E+00  0.2052E+02
  -1.535  0.7191E+00  0.2053E+02
  -1.525  0.7245E+00  0.2054E+02
  -1.515  0.7300E+00  0.2055E+02
  -1.505  0.7354E+00  0.2055E+02
  -1.495  0.7409E+00  0.2056E+02
  -1.485  0.7463E+00  0.2057E+02
  -1.475  0.7517E+00  0.2058E+02
  -1.465  0.7571E+00  0.2058E+02
  -1.455  0.7625E+00  0.2059E+02
  -1.445  0.7679E+00  0.2060E+02
  -1.435  0.7733E+00  0.2061E+02
  -1.425  0.7786E+00  0.2061E+02
  -1.415  0.7839E+00  0.2062E+02
  -1.405  0.7892E+00  0.2063E+02
  -1.395  0.7945E+00  0.2064E+02
  -1.385  0.7998E+00  0.2065E+02
  -1.375  0.8050E+00  0.2065E+02
  -1.365  0.8101E+00  0.2066E+02
  -1.355  0.8153E+00  0.2067E+02
  -1.345  0.8204E+00  0.2068E+02
  -1.335  0.8254E+00  0.2069E+02
  -1.325  0.8304E+00  0.2069E+02
  -1.315  0.8353E+00  0.2070E+02
  -1.305  0.8402E+00  0.2071E+02
  -1.295  0.8451E+00  0.2072E+02
  -1.285  0.8499E+00  0.2073E+02
  -1.275  0.8546E+00  0.2074E+02
  -1.265  0.8592E+00  0.2075E+02
  -1.255  0.8638E+00  0.2075E+02
  -1.245  0.8683E+00  0.2076E+02
  -1.235  0.8727E+00  0.2077E+02
  -1.225  0.8770E+00  0.2078E+02
  -1.215  0.8813E+00  0.2079E+02
  -1.205  0.8855E+00  0.2080E+02
  -1.195  0.8896E+00  0.2081E+02
  -1.185  0.8936E+00  0.2082E+02
  -1.175  0.8975E+00  0.2082E+02
  -1.165  0.9012E+00  0.2083E+02
  -1.155  0.9049E+00  0.2084E+02
  -1.145  0.9085E+00  0.2085E+02
  -1.135  0.9120E+00  0.2086E+02
  -1.125  0.9154E+00  0.2087E+02
  -1.115  0.9186E+00  0.2088E+02
  -1.105  0.9218E+00  0.2089E+02
  -1.095  0.9248E+00  0.2090E+02
  -1.085  0.9277E+00  0.2091E+02
  -1.075  0.9304E+00  0.2092E+02
  -1.065  0.9331E+00  0.2093E+02
  -1.055  0.9356E+00  0.2094E+02
  -1.045  0.9380E+00  0.2094E+02
  -1.035  0.9402E+00  0.2095E+02
  -1.025  0.9423E+00  0.2096E+02
  -1.015  0.9443E+00  0.2097E+02
  -1.005  0.9461E+00  0.2098E+02
  -0.995  0.9478E+00  0.2099E+02
  -0.985  0.9494E+00  0.2100E+02
  -0.975  0.9508E+00  0.2101E+02
  -0.965  0.9521E+00  0.2102E+02
  -0.955  0.9532E+00  0.2103E+02
  -0.945  0.9541E+00  0.2104E+02
  -0.935  0.9549E+00  0.2105E+02
  -0.925  0.9556E+00  0.2106E+02
  -0.915  0.9561E+00  0.2107E+02
  -0.905  0.9565E+00  0.2108E+02
  -0.895  0.9567E+00  0.2109E+02
  -0.885  0.9568E+00  0.2110E+02
  -0.875  0.9567E+00  0.2111E+02
  -0.865  0.9565E+00  0.2112E+02
  -0.855  0.9561E+00  0.2113E+02
  -0.845  0.9555E+00  0.2114E+02
  -0.835  0.9548E+00  0.2114E+02
  -0.825  0.9540E+00  0.2115E+02
  -0.815  0.9530E+00  0.2116E+02
  -0.805  0.9519E+00  0.2117E+02
  -0.795  0.9506E+00  0.2118E+02
  -0.785  0.9491E+00  0.2119E+02
  -0.775  0.9475E+00  0.2120E+02
  -0.765  0.9458E+00  0.2121E+02
  -0.755  0.9439E+00  0.2122E+02
  -0.745  0.9419E+00  0.2123E+02
  -0.735  0.9398E+00  0.2124E+02
  -0.725  0.9375E+00  0.2125E+02
  -0.715  0.9350E+00  0.2126E+02
  -0.705  0.9324E+00  0.2127E+02
  -0.695  0.9297E+00  0.2128E+02
  -0.685  0.9269E+00  0.2129E+02
  -0.675  0.9239E+00  0.2130E+02
  -0.665  0.9208E+00  0.2130E+02
  -0.655  0.9176E+00  0.2131E+02
  -0.645  0.9142E+00  0.2132E+02
  -0.635  0.9107E+00  0.2133E+02
  -0.625  0.9071E+00  0.2134E+02
  -0.615  0.9034E+00  0.2135E+02
  -0.605  0.8996E+00  0.2136E+02
  -0.595  0.8956E+00  0.2137E+02
  -0.585  0.8916E+00  0.2138E+02
  -0.575  0.8874E+00  0.2139E+02
  -0.565  0.8831E+00  0.2139E+02
  -0.555  0.8787E+00  0.2140E+02
  -0.545  0.8742E+00  0.2141E+02
  -0.535  0.8696E+00  0.2142E+02
  -0.525  0.8649E+00  0.2143E+02
  -0.515  0.8601E+00  0.2144E+02
  -0.505  0.8553E+00  0.2145E+02
  -0.495  0.8503E+00  0.2146E+02
  -0.485  0.8452E+00  0.2146E+02
  -0.475  0.8401E+00  0.2147E+02
  -0.465  0.8349E+00  0.2148E+02
  -0.455  0.8295E+00  0.2149E+02
  -0.445  0.8242E+00  0.2150E+02
  -0.435  0.8187E+00  0.2151E+02
  -0.425  0.8132E+00  0.2151E+02
  -0.415  0.8075E+00  0.2152E+02
  -0.405  0.8019E+00  0.2153E+02
  -0.395  0.7961E+00  0.2154E+02
  -0.385  0.7903E+00  0.2155E+02
  -0.375  0.7844E+00  0.2155E+02
  -0.365  0.7785E+00  0.2156E+02
  -0.355  0.7725E+00  0.2157E+02
  -0.345  0.7665E+00  0.2158E+02
  -0.335  0.7604E+00  0.2158E+02
  -0.325  0.7543E+00  0.2159E+02
  -0.315  0.7481E+00  0.2160E+02
  -0.305  0.7419E+00  0.2161E+02
  -0.295  0.7356E+00  0.2161E+02
  -0.285  0.7293E+00  0.2162E+02
  -0.275  0.7230E+00  0.2163E+02
  -0.265  0.7166E+00  0.2164E+02
  -0.255  0.7102E+00  0.2164E+02
  -0.245  0.7037E+00  0.2165E+02
  -0.235  0.6973E+00  0.2166E+02
  -0.225  0.6908E+00  0.2166E+02
  -0.215  0.6843E+00  0.2167E+02
  -0.205  0.6778E+00  0.2168E+02
  -0.195  0.6713E+00  0.2168E+02
  -0.185  0.6647E+00  0.2169E+02
  -0.175  0.6582E+00  0.2170E+02
  -0.165  0.6516E+00  0.2170E+02
  -0.155  0.6451E+00  0.2171E+02
  -0.145  0.6385E+00  0.2172E+02
  -0.135  0.6320E+00  0.2172E+02
  -0.125  0.6255E+00  0.2173E+02
  -0.115  0.6189E+00  0.2173E+02
  -0.105  0.6124E+00  0.2174E+02
  -0.095  0.6059E+00  0.2175E+02
  -0.085  0.5994E+00  0.2175E+02
  -0.075  0.5930E+00  0.2176E+02
  -0.065  0.5865E+00  0.2176E+02
  -0.055  0.5801E+00  0.2177E+02
  -0.045  0.5738E+00  0.2178E+02
  -0.035  0.5674E+00  0.2178E+02
  -0.025  0.5611E+00  0.2179E+02
  -0.015  0.5549E+00  0.2179E+02
  -0.005  0.5487E+00  0.2180E+02
   0.005  0.5425E+00  0.2180E+02
   0.015  0.5364E+00  0.2181E+02
   0.025  0.5304E+00  0.2181E+02
   0.035  0.5244E+00  0.2182E+02
   0.045  0.5185E+00  0.2183E+02
   0.055  0.5126E+00  0.2183E+02
   0.065  0.5069E+00  0.2184E+02
   0.075  0.5012E+00  0.2184E+02
   0.085  0.4956E+00  0.2185E+02
   0.095  0.4900E+00  0.2185E+02
   0.105  0.4846E+00  0.2186E+02
   0.115  0.4792E+00  0.2186E+02
   0.125  0.4739E+00  0.2186E+02
   0.135  0.4688E+00  0.2187E+02
   0.145  0.4637E+00  0.2187E+02
   0.155  0.4588E+00  0.2188E+02
   0.165  0.4539E+00  0.2188E+02
   0.175  0.4492E+00  0.2189E+02
   0.185  0.4446E+00  0.2189E+02
   0.195  0.4401E+00  0.2190E+02
   0.205  0.4357E+00  0.2190E+02
   0.215  0.4314E+00  0.2191E+02
   0.225  0.4273E+00  0.2191E+02
   0.235  0.4233E+00  0.2191E+02
   0.245  0.4195E+00  0.2192E+02
   0.255  0.4157E+00  0.2192E+02
   0.265  0.4122E+00  0.2193E+02
   0.275  0.4087E+00  0.2193E+02
   0.285  0.4055E+00  0.2193E+02
   0.295  0.4023E+00  0.2194E+02
   0.305  0.3994E+00  0.2194E+02
   0.315  0.3965E+00  0.2195E+02
   0.325  0.3939E+00  0.2195E+02
   0.335  0.3914E+00  0.2195E+02
   0.345  0.3890E+00  0.2196E+02
   0.355  0.3869E+00  0.2196E+02
   0.365  0.3849E+00  0.2197E+02
   0.375  0.3830E+00  0.2197E+02
   0.385  0.3814E+00  0.2197E+02
   0.395  0.3799E+00  0.2198E+02
   0.405  0.3785E+00  0.2198E+02
   0.415  0.3774E+00  0.2198E+02
   0.425  0.3764E+00  0.2199E+02
   0.435  0.3756E+00  0.2199E+02
   0.445  0.3750E+00  0.2200E+02
   0.455  0.3746E+00  0.2200E+02
   0.465  0.3743E+00  0.2200E+02
   0.475  0.3742E+00  0.2201E+02
   0.485  0.3743E+00  0.2201E+02
   0.495  0.3746E+00  0.2201E+02
   0.505  0.3750E+00  0.2202E+02
   0.515  0.3757E+00  0.2202E+02
   0.525  0.3765E+00  0.2203E+02
   0.535  0.3775E+00  0.2203E+02
   0.545  0.3786E+00  0.2203E+02
   0.555  0.3800E+00  0.2204E+02
   0.565  0.3815E+00  0.2204E+02
   0.575  0.3832E+00  0.2205E+02
   0.585  0.3850E+00  0.2205E+02
   0.595  0.3871E+00  0.2205E+02
   0.605  0.3893E+00  0.2206E+02
   0.615  0.3917E+00  0.2206E+02
   0.625  0.3942E+00  0.2206E+02
   0.635  0.3969E+00  0.2207E+02
   0.645  0.3998E+00  0.2207E+02
   0.655  0.4028E+00  0.2208E+02
   0.665  0.4060E+00  0.2208E+02
   0.675  0.4094E+00  0.2208E+02
   0.685  0.4129E+00  0.2209E+02
   0.695  0.4165E+00  0.2209E+02
   0.705  0.4203E+00  0.2210E+02
   0.715  0.4243E+00  0.2210E+02
   0.725  0.4284E+00  0.2211E+02
   0.735  0.4326E+00  0.2211E+02
   0.745  0.4370E+00  0.2211E+02
   0.755  0.4415E+00  0.2212E+02
   0.765  0.4461E+00  0.2212E+02
   0.775  0.4509E+00  0.2213E+02
   0.785  0.4558E+00  0.2213E+02
   0.795  0.4608E+00  0.2214E+02
   0.805  0.4660E+00  0.2214E+02
   0.815  0.4712E+00  0.2215E+02
   0.825  0.4766E+00  0.2215E+02
   0.835  0.4820E+00  0.2216E+02
   0.845  0.4876E+00  0.2216E+02
   0.855  0.4933E+00  0.2217E+02
   0.865  0.4990E+00  0.2217E+02
   0.875  0.5049E+00  0.2218E+02
   0.885  0.5109E+00  0.2218E+02
   0.895  0.5169E+00  0.2219E+02
   0.905  0.5230E+00  0.2219E+02
   0.915  0.5292E+00  0.2220E+02
   0.925  0.5355E+00  0.2220E+02
   0.935  0.5418E+00  0.2221E+02
   0.945  0.5482E+00  0.2221E+02
   0.955  0.5547E+00  0.2222E+02
   0.965  0.5612E+00  0.2222E+02
   0.975  0.5677E+00  0.2223E+02
   0.985  0.5743E+00  0.2224E+02
   0.995  0.5810E+00  0.2224E+02
   1.005  0.5877E+00  0.2225E+02
   1.015  0.5944E+00  0.2225E+02
   1.025  0.6012E+00  0.2226E+02
   1.035  0.6079E+00  0.2227E+02
   1.045  0.6147E+00  0.2227E+02
   1.055  0.6215E+00  0.2228E+02
   1.065  0.6284E+00  0.2228E+02
   1.075  0.6352E+00  0.2229E+02
   1.085  0.6420E+00  0.2230E+02
   1.095  0.6488E+00  0.2230E+02
   1.105  0.6556E+00  0.2231E+02
   1.115  0.6624E+00  0.2232E+02
   1.125  0.6692E+00  0.2232E+02
   1.135  0.6760E+00  0.2233E+02
   1.145  0.6827E+00  0.2234E+02
   1.155  0.6894E+00  0.2234E+02
   1.165  0.6960E+00  0.2235E+02
   1.175  0.7027E+00  0.2236E+02
   1.185  0.7092E+00  0.2236E+02
   1.195  0.7157E+00  0.2237E+02
   1.205  0.7222E+00  0.2238E+02
   1.215  0.7285E+00  0.2239E+02
   1.225  0.7348E+00  0.2239E+02
   1.235  0.7411E+00  0.2240E+02
   1.245  0.7472E+00  0.2241E+02
   1.255  0.7533E+00  0.2242E+02
   1.265  0.7593E+00  0.2242E+02
   1.275  0.7651E+00  0.2243E+02
   1.285  0.7709E+00  0.2244E+02
   1.295  0.7766E+00  0.2245E+02
   1.305  0.7821E+00  0.2245E+02
   1.315  0.7876E+00  0.2246E+02
   1.325  0.7929E+00  0.2247E+02
   1.335  0.7981E+00  0.2248E+02
   1.345  0.8032E+00  0.2249E+02
   1.355  0.8081E+00  0.2249E+02
   1.365  0.8129E+00  0.2250E+02
   1.375  0.8176E+00  0.2251E+02
   1.385  0.8221E+00  0.2252E+02
   1.395  0.8264E+00  0.2253E+02
   1.405  0.8306E+00  0.2254E+02
   1.415  0.8347E+00  0.2254E+02
   1.425  0.8386E+00  0.2255E+02
   1.435  0.8423E+00  0.2256E+02
   1.445  0.8458E+00  0.2257E+02
   1.455  0.8492E+00  0.2258E+02
   1.465  0.8524E+00  0.2259E+02
   1.475  0.8554E+00  0.2259E+02
   1.485  0.8582E+00  0.2260E+02
   1.495  0.8608E+00  0.2261E+02
   1.505  0.8633E+00  0.2262E+02
   1.515  0.8656E+00  0.2263E+02
   1.525  0.8676E+00  0.2264E+02
   1.535  0.8695E+00  0.2265E+02
   1.545  0.8712E+00  0.2266E+02
   1.555  0.8727E+00  0.2266E+02
   1.565  0.8740E+00  0.2267E+02
   1.575  0.8751E+00  0.2268E+02
   1.585  0.8760E+00  0.2269E+02
   1.595  0.8767E+00  0.2270E+02
   1.605  0.8772E+00  0.2271E+02
   1.615  0.8775E+00  0.2272E+02
   1.625  0.8776E+00  0.2273E+02
   1.635  0.8775E+00  0.2273E+02
   1.645  0.8772E+00  0.2274E+02
   1.655  0.8767E+00  0.2275E+02
   1.665  0.8760E+00  0.2276E+02
   1.675  0.8751E+00  0.2277E+02
   1.685  0.8741E+00  0.2278E+02
   1.695  0.8728E+00  0.2279E+02
   1.705  0.8714E+00  0.2280E+02
   1.715  0.8697E+00  0.2280E+02
   1.725  0.8679E+00  0.2281E+02
   1.735  0.8659E+00  0.2282E+02
   1.745  0.8637E+00  0.2283E+02
   1.755  0.8614E+00  0.2284E+02
   1.765  0.8589E+00  0.2285E+02
   1.775  0.8562E+00  0.2286E+02
   1.785  0.8533E+00  0.2286E+02
   1.795  0.8503E+00  0.2287E+02
   1.805  0.8472E+00  0.2288E+02
   1.815  0.8438E+00  0.2289E+02
   1.825  0.8404E+00  0.2290E+02
   1.835  0.8368E+00  0.2291E+02
   1.845  0.8330E+00  0.2291E+02
   1.855  0.8291E+00  0.2292E+02
   1.865  0.8251E+00  0.2293E+02
   1.875  0.8210E+00  0.2294E+02
   1.885  0.8168E+00  0.2295E+02
   1.895  0.8124E+00  0.2296E+02
   1.905  0.8079E+00  0.2296E+02
   1.915  0.8033E+00  0.2297E+02
   1.925  0.7987E+00  0.2298E+02
   1.935  0.7939E+00  0.2299E+02
   1.945  0.7890E+00  0.2300E+02
   1.955  0.7841E+00  0.2300E+02
   1.965  0.7790E+00  0.2301E+02
   1.975  0.7739E+00  0.2302E+02
   1.985  0.7688E+00  0.2303E+02
   1.995  0.7635E+00  0.2303E+02
   2.005  0.7582E+00  0.2304E+02
   2.015  0.7529E+00  0.2305E+02
   2.025  0.7475E+00  0.2306E+02
   2.035  0.7420E+00  0.2306E+02
   2.045  0.7366E+00  0.2307E+02
   2.055  0.7310E+00  0.2308E+02
   2.065  0.7255E+00  0.2309E+02
   2.075  0.7199E+00  0.2309E+02
   2.085  0.7143E+00  0.2310E+02
   2.095  0.7087E+00  0.2311E+02
   2.105  0.7031E+00  0.2311E+02
   2.115  0.6974E+00  0.2312E+02
   2.125  0.6918E+00  0.2313E+02
   2.135  0.6861E+00  0.2314E+02
   2.145  0.6805E+00  0.2314E+02
   2.155  0.6748E+00  0.2315E+02
   2.165  0.6692E+00  0.2316E+02
   2.175  0.6636E+00  0.2316E+02
   2.185  0.6580E+00  0.2317E+02
   2.195  0.6524E+00  0.2318E+02
   2.205  0.6468E+00  0.2318E+02
   2.215  0.6413E+00  0.2319E+02
   2.225  0.6358E+00  0.2319E+02
   2.235  0.6303E+00  0.2320E+02
   2.245  0.6248E+00  0.2321E+02
   2.255  0.6194E+00  0.2321E+02
   2.265  0.6140E+00  0.2322E+02
   2.275  0.6086E+00  0.2323E+02
   2.285  0.6033E+00  0.2323E+02
   2.295  0.5980E+00  0.2324E+02
   2.305  0.5928E+00  0.2324E+02
   2.315  0.5876E+00  0.2325E+02
   2.325  0.5825E+00  0.2326E+02
   2.335  0.5774E+00  0.2326E+02
   2.345  0.5723E+00  0.2327E+02
   2.355  0.5673E+00  0.2327E+02
   2.365  0.5623E+00  0.2328E+02
   2.375  0.5574E+00  0.2328E+02
   2.385  0.5526E+00  0.2329E+02
   2.395  0.5478E+00  0.2329E+02
   2.405  0.5430E+00  0.2330E+02
   2.415  0.5383E+00  0.2331E+02
   2.425  0.5337E+00  0.2331E+02
   2.435  0.5291E+00  0.2332E+02
   2.445  0.5245E+00  0.2332E+02
   2.455  0.5200E+00  0.2333E+02
   2.465  0.5156E+00  0.2333E+02
   2.475  0.5112E+00  0.2334E+02
   2.485  0.5068E+00  0.2334E+02
   2.495  0.5026E+00  0.2335E+02
   2.505  0.4983E+00  0.2335E+02
   2.515  0.4941E+00  0.2336E+02
   2.525  0.4900E+00  0.2336E+02
   2.535  0.4859E+00  0.2337E+02
   2.545  0.4819E+00  0.2337E+02
   2.555  0.4779E+00  0.2338E+02
   2.565  0.4740E+00  0.2338E+02
   2.575  0.4701E+00  0.2339E+02
   2.585  0.4662E+00  0.2339E+02
   2.595  0.4624E+00  0.2339E+02
   2.605  0.4587E+00  0.2340E+02
   2.615  0.4550E+00  0.2340E+02
   2.625  0.4513E+00  0.2341E+02
   2.635  0.4477E+00  0.2341E+02
   2.645  0.4442E+00  0.2342E+02
   2.655  0.4406E+00  0.2342E+02
   2.665  0.4372E+00  0.2343E+02
   2.675  0.4337E+00  0.2343E+02
   2.685  0.4303E+00  0.2343E+02
   2.695  0.4270E+00  0.2344E+02
   2.705  0.4237E+00  0.2344E+02
   2.715  0.4204E+00  0.2345E+02
   2.725  0.4172E+00  0.2345E+02
   2.735  0.4140E+00  0.2346E+02
   2.745  0.4108E+00  0.2346E+02
   2.755  0.4077E+00  0.2346E+02
   2.765  0.4046E+00  0.2347E+02
   2.775  0.4016E+00  0.2347E+02
   2.785  0.3985E+00  0.2348E+02
   2.795  0.3956E+00  0.2348E+02
   2.805  0.3926E+00  0.2348E+02
   2.815  0.3897E+00  0.2349E+02
   2.825  0.3868E+00  0.2349E+02
   2.835  0.3840E+00  0.2350E+02
   2.845  0.3811E+00  0.2350E+02
   2.855  0.3784E+00  0.2350E+02
   2.865  0.3756E+00  0.2351E+02
   2.875  0.3729E+00  0.2351E+02
   2.885  0.3702E+00  0.2351E+02
   2.895  0.3675E+00  0.2352E+02
   2.905  0.3648E+00  0.2352E+02
   2.915  0.3622E+00  0.2353E+02
   2.925  0.3596E+00  0.2353E+02
   2.935  0.3571E+00  0.2353E+02
   2.945  0.3545E+00  0.2354E+02
   2.955  0.3520E+00  0.2354E+02
   2.965  0.3495E+00  0.2354E+02
   2.975  0.3471E+00  0.2355E+02
   2.985  0.3446E+00  0.2355E+02
   2.995  0.3422E+00  0.2355E+02
   3.005  0.3398E+00  0.2356E+02
   3.015  0.3374E+00  0.2356E+02
   3.025  0.3351E+00  0.2356E+02
   3.035  0.3328E+00  0.2357E+02
   3.045  0.3305E+00  0.2357E+02
   3.055  0.3282E+00  0.2357E+02
   3.065  0.3259E+00  0.2358E+02
   3.075  0.3237E+00  0.2358E+02
   3.085  0.3215E+00  0.2358E+02
   3.095  0.3193E+00  0.2359E+02
   3.105  0.3171E+00  0.2359E+02
   3.115  0.3149E+00  0.2359E+02
   3.125  0.3128E+00  0.2360E+02
   3.135  0.3107E+00  0.2360E+02
   3.145  0.3086E+00  0.2360E+02
   3.155  0.3065E+00  0.2361E+02
   3.165  0.3044E+00  0.2361E+02
   3.175  0.3024E+00  0.2361E+02
   3.185  0.3003E+00  0.2361E+02
   3.195  0.2983E+00  0.2362E+02
   3.205  0.2964E+00  0.2362E+02
   3.215  0.2944E+00  0.2362E+02
   3.225  0.2925E+00  0.2363E+02
   3.235  0.2905E+00  0.2363E+02
   3.245  0.2886E+00  0.2363E+02
   3.255  0.2867E+00  0.2363E+02
   3.265  0.2849E+00  0.2364E+02
   3.275  0.2830E+00  0.2364E+02
   3.285  0.2812E+00  0.2364E+02
   3.295  0.2794E+00  0.2365E+02
   3.305  0.2776E+00  0.2365E+02
   3.315  0.2758E+00  0.2365E+02
   3.325  0.2741E+00  0.2365E+02
   3.335  0.2724E+00  0.2366E+02
   3.345  0.2707E+00  0.2366E+02
   3.355  0.2690E+00  0.2366E+02
   3.365  0.2674E+00  0.2367E+02
   3.375  0.2657E+00  0.2367E+02
   3.385  0.2641E+00  0.2367E+02
   3.395  0.2626E+00  0.2367E+02
   3.405  0.2610E+00  0.2368E+02
   3.415  0.2595E+00  0.2368E+02
   3.425  0.2580E+00  0.2368E+02
   3.435  0.2565E+00  0.2368E+02
   3.445  0.2551E+00  0.2369E+02
   3.455  0.2537E+00  0.2369E+02
   3.465  0.2523E+00  0.2369E+02
   3.475  0.2510E+00  0.2369E+02
   3.485  0.2497E+00  0.2370E+02
   3.495  0.2484E+00  0.2370E+02
   3.505  0.2472E+00  0.2370E+02
   3.515  0.2460E+00  0.2370E+02
   3.525  0.2449E+00  0.2371E+02
   3.535  0.2438E+00  0.2371E+02
   3.545  0.2428E+00  0.2371E+02
   3.555  0.2418E+00  0.2371E+02
   3.565  0.2408E+00  0.2372E+02
   3.575  0.2399E+00  0.2372E+02
   3.585  0.2390E+00  0.2372E+02
   3.595  0.2382E+00  0.2372E+02
   3.605  0.2375E+00  0.2373E+02
   3.615  0.2368E+00  0.2373E+02
   3.625  0.2362E+00  0.2373E+02
   3.635  0.2357E+00  0.2373E+02
   3.645  0.2352E+00  0.2373E+02
   3.655  0.2348E+00  0.2374E+02
   3.665  0.2344E+00  0.2374E+02
   3.675  0.2342E+00  0.2374E+02
   3.685  0.2340E+00  0.2374E+02
   3.695  0.2339E+00  0.2375E+02
   3.705  0.2339E+00  0.2375E+02
   3.715  0.2340E+00  0.2375E+02
   3.725  0.2341E+00  0.2375E+02
   3.735  0.2344E+00  0.2376E+02
   3.745  0.2348E+00  0.2376E+02
   3.755  0.2352E+00  0.2376E+02
   3.765  0.2358E+00  0.2376E+02
   3.775  0.2365E+00  0.2376E+02
   3.785  0.2373E+00  0.2377E+02
   3.795  0.2382E+00  0.2377E+02
   3.805  0.2393E+00  0.2377E+02
   3.815  0.2404E+00  0.2377E+02
   3.825  0.2417E+00  0.2378E+02
   3.835  0.2432E+00  0.2378E+02
   3.845  0.2448E+00  0.2378E+02
   3.855  0.2465E+00  0.2378E+02
   3.865  0.2484E+00  0.2379E+02
   3.875  0.2504E+00  0.2379E+02
   3.885  0.2526E+00  0.2379E+02
   3.895  0.2549E+00  0.2379E+02
   3.905  0.2574E+00  0.2380E+02
   3.915  0.2601E+00  0.2380E+02
   3.925  0.2630E+00  0.2380E+02
   3.935  0.2660E+00  0.2380E+02
   3.945  0.2692E+00  0.2381E+02
   3.955  0.2726E+00  0.2381E+02
   3.965  0.2762E+00  0.2381E+02
   3.975  0.2800E+00  0.2382E+02
   3.985  0.2839E+00  0.2382E+02
   3.995  0.2881E+00  0.2382E+02
   4.005  0.2925E+00  0.2382E+02
   4.015  0.2971E+00  0.2383E+02
   4.025  0.3019E+00  0.2383E+02
   4.035  0.3069E+00  0.2383E+02
   4.045  0.3122E+00  0.2384E+02
   4.055  0.3176E+00  0.2384E+02
   4.065  0.3233E+00  0.2384E+02
   4.075  0.3292E+00  0.2385E+02
   4.085  0.3353E+00  0.2385E+02
   4.095  0.3417E+00  0.2385E+02
   4.105  0.3483E+00  0.2386E+02
   4.115  0.3551E+00  0.2386E+02
   4.125  0.3622E+00  0.2386E+02
   4.135  0.3694E+00  0.2387E+02
   4.145  0.3770E+00  0.2387E+02
   4.155  0.3847E+00  0.2388E+02
   4.165  0.3927E+00  0.2388E+02
   4.175  0.4009E+00  0.2388E+02
   4.185  0.4094E+00  0.2389E+02
   4.195  0.4181E+00  0.2389E+02
   4.205  0.4270E+00  0.2390E+02
   4.215  0.4361E+00  0.2390E+02
   4.225  0.4455E+00  0.2390E+02
   4.235  0.4551E+00  0.2391E+02
   4.245  0.4649E+00  0.2391E+02
   4.255  0.4749E+00  0.2392E+02
   4.265  0.4852E+00  0.2392E+02
   4.275  0.4956E+00  0.2393E+02
   4.285  0.5063E+00  0.2393E+02
   4.295  0.5171E+00  0.2394E+02
   4.305  0.5282E+00  0.2394E+02
   4.315  0.5394E+00  0.2395E+02
   4.325  0.5508E+00  0.2395E+02
   4.335  0.5625E+00  0.2396E+02
   4.345  0.5742E+00  0.2397E+02
   4.355  0.5862E+00  0.2397E+02
   4.365  0.5983E+00  0.2398E+02
   4.375  0.6106E+00  0.2398E+02
   4.385  0.6230E+00  0.2399E+02
   4.395  0.6355E+00  0.2400E+02
   4.405  0.6482E+00  0.2400E+02
   4.415  0.6610E+00  0.2401E+02
   4.425  0.6739E+00  0.2402E+02
   4.435  0.6869E+00  0.2402E+02
   4.445  0.7000E+00  0.2403E+02
   4.455  0.7132E+00  0.2404E+02
   4.465  0.7265E+00  0.2404E+02
   4.475  0.7398E+00  0.2405E+02
   4.485  0.7532E+00  0.2406E+02
   4.495  0.7667E+00  0.2407E+02
   4.505  0.7802E+00  0.2407E+02
   4.515  0.7938E+00  0.2408E+02
   4.525  0.8073E+00  0.2409E+02
   4.535  0.8209E+00  0.2410E+02
   4.545  0.8345E+00  0.2411E+02
   4.555  0.8481E+00  0.2412E+02
   4.565  0.8617E+00  0.2412E+02
   4.575  0.8752E+00  0.2413E+02
   4.585  0.8888E+00  0.2414E+02
   4.595  0.9023E+00  0.2415E+02
   4.605  0.9157E+00  0.2416E+02
   4.615  0.9291E+00  0.2417E+02
   4.625  0.9425E+00  0.2418E+02
   4.635  0.9557E+00  0.2419E+02
   4.645  0.9689E+00  0.2420E+02
   4.655  0.9820E+00  0.2421E+02
   4.665  0.9951E+00  0.2422E+02
   4.675  0.1008E+01  0.2423E+02
   4.685  0.1021E+01  0.2424E+02
   4.695  0.1034E+01  0.2425E+02
   4.705  0.1046E+01  0.2426E+02
   4.715  0.1059E+01  0.2427E+02
   4.725  0.1071E+01  0.2428E+02
   4.735  0.1083E+01  0.2429E+02
   4.745  0.1095E+01  0.2430E+02
   4.755  0.1107E+01  0.2431E+02
   4.765  0.1119E+01  0.2432E+02
   4.775  0.1131E+01  0.2434E+02
   4.785  0.1142E+01  0.2435E+02
   4.795  0.1153E+01  0.2436E+02
   4.805  0.1165E+01  0.2437E+02
   4.815  0.1176E+01  0.2438E+02
   4.825  0.1187E+01  0.2439E+02
   4.835  0.1197E+01  0.2441E+02
   4.845  0.1208E+01  0.2442E+02
   4.855  0.1218E+01  0.2443E+02
   4.865  0.1228E+01  0.2444E+02
   4.875  0.1239E+01  0.2446E+02
   4.885  0.1248E+01  0.2447E+02
   4.895  0.1258E+01  0.2448E+02
   4.905  0.1268E+01  0.2449E+02
   4.915  0.1277E+01  0.2451E+02
   4.925  0.1286E+01  0.2452E+02
   4.935  0.1295E+01  0.2453E+02
   4.945  0.1304E+01  0.2454E+02
   4.955  0.1313E+01  0.2456E+02
   4.965  0.1322E+01  0.2457E+02
   4.975  0.1330E+01  0.2458E+02
   4.985  0.1339E+01  0.2460E+02
   4.995  0.1347E+01  0.2461E+02
   5.005  0.1355E+01  0.2462E+02
   5.015  0.1363E+01  0.2464E+02
   5.025  0.1370E+01  0.2465E+02
   5.035  0.1378E+01  0.2467E+02
   5.045  0.1386E+01  0.2468E+02
   5.055  0.1393E+01  0.2469E+02
   5.065  0.1400E+01  0.2471E+02
   5.075  0.1407E+01  0.2472E+02
   5.085  0.1414E+01  0.2474E+02
   5.095  0.1421E+01  0.2475E+02
   5.105  0.1428E+01  0.2476E+02
   5.115  0.1434E+01  0.2478E+02
   5.125  0.1441E+01  0.2479E+02
   5.135  0.1447E+01  0.2481E+02
   5.145  0.1454E+01  0.2482E+02
   5.155  0.1460E+01  0.2484E+02
   5.165  0.1466E+01  0.2485E+02
   5.175  0.1472E+01  0.2487E+02
   5.185  0.1478E+01  0.2488E+02
   5.195  0.1484E+01  0.2490E+02
   5.205  0.1489E+01  0.2491E+02
   5.215  0.1495E+01  0.2493E+02
   5.225  0.1500E+01  0.2494E+02
   5.235  0.1506E+01  0.2496E+02
   5.245  0.1511E+01  0.2497E+02
   5.255  0.1516E+01  0.2499E+02
   5.265  0.1521E+01  0.2500E+02
   5.275  0.1527E+01  0.2502E+02
   5.285  0.1532E+01  0.2503E+02
   5.295  0.1536E+01  0.2505E+02
   5.305  0.1541E+01  0.2506E+02
   5.315  0.1546E+01  0.2508E+02
   5.325  0.1551E+01  0.2509E+02
   5.335  0.1555E+01  0.2511E+02
   5.345  0.1560E+01  0.2512E+02
   5.355  0.1564E+01  0.2514E+02
   5.365  0.1569E+01  0.2516E+02
   5.375  0.1573E+01  0.2517E+02
   5.385  0.1577E+01  0.2519E+02
   5.395  0.1581E+01  0.2520E+02
   5.405  0.1585E+01  0.2522E+02
   5.415  0.1589E+01  0.2523E+02
   5.425  0.1593E+01  0.2525E+02
   5.435  0.1596E+01  0.2527E+02
   5.445  0.1600E+01  0.2528E+02
   5.455  0.1604E+01  0.2530E+02
   5.465  0.1607E+01  0.2531E+02
   5.475  0.1610E+01  0.2533E+02
   5.485  0.1614E+01  0.2535E+02
   5.495  0.1617E+01  0.2536E+02
   5.505  0.1620E+01  0.2538E+02
   5.515  0.1623E+01  0.2540E+02
   5.525  0.1626E+01  0.2541E+02
   5.535  0.1628E+01  0.2543E+02
   5.545  0.1631E+01  0.2544E+02
   5.555  0.1633E+01  0.2546E+02
   5.565  0.1636E+01  0.2548E+02
   5.575  0.1638E+01  0.2549E+02
   5.585  0.1640E+01  0.2551E+02
   5.595  0.1643E+01  0.2553E+02
   5.605  0.1645E+01  0.2554E+02
   5.615  0.1646E+01  0.2556E+02
   5.625  0.1648E+01  0.2558E+02
   5.635  0.1650E+01  0.2559E+02
   5.645  0.1651E+01  0.2561E+02
   5.655  0.1653E+01  0.2563E+02
   5.665  0.1654E+01  0.2564E+02
   5.675  0.1655E+01  0.2566E+02
   5.685  0.1656E+01  0.2567E+02
   5.695  0.1657E+01  0.2569E+02
   5.705  0.1658E+01  0.2571E+02
   5.715  0.1659E+01  0.2572E+02
   5.725  0.1659E+01  0.2574E+02
   5.735  0.1660E+01  0.2576E+02
   5.745  0.1660E+01  0.2577E+02
   5.755  0.1660E+01  0.2579E+02
   5.765  0.1660E+01  0.2581E+02
   5.775  0.1660E+01  0.2582E+02
   5.785  0.1660E+01  0.2584E+02
   5.795  0.1660E+01  0.2586E+02
   5.805  0.1659E+01  0.2587E+02
   5.815  0.1659E+01  0.2589E+02
   5.825  0.1658E+01  0.2591E+02
   5.835  0.1657E+01  0.2592E+02
   5.845  0.1656E+01  0.2594E+02
   5.855  0.1655E+01  0.2596E+02
   5.865  0.1654E+01  0.2597E+02
   5.875  0.1653E+01  0.2599E+02
   5.885  0.1651E+01  0.2601E+02
   5.895  0.1650E+01  0.2602E+02
   5.905  0.1648E+01  0.2604E+02
   5.915  0.1646E+01  0.2606E+02
   5.925  0.1645E+01  0.2607E+02
   5.935  0.1643E+01  0.2609E+02
   5.945  0.1641E+01  0.2611E+02
   5.955  0.1638E+01  0.2612E+02
   5.965  0.1636E+01  0.2614E+02
   5.975  0.1634E+01  0.2615E+02
   5.985  0.1631E+01  0.2617E+02
   5.995  0.1629E+01  0.2619E+02
   6.005  0.1626E+01  0.2620E+02
   6.015  0.1623E+01  0.2622E+02
   6.025  0.1620E+01  0.2624E+02
   6.035  0.1617E+01  0.2625E+02
   6.045  0.1614E+01  0.2627E+02
   6.055  0.1611E+01  0.2628E+02
   6.065  0.1607E+01  0.2630E+02
   6.075  0.1604E+01  0.2632E+02
   6.085  0.1600E+01  0.2633E+02
   6.095  0.1597E+01  0.2635E+02
   6.105  0.1593E+01  0.2636E+02
   6.115  0.1589E+01  0.2638E+02
   6.125  0.1585E+01  0.2640E+02
   6.135  0.1581E+01  0.2641E+02
   6.145  0.1577E+01  0.2643E+02
   6.155  0.1573E+01  0.2644E+02
   6.165  0.1569E+01  0.2646E+02
   6.175  0.1565E+01  0.2647E+02
   6.185  0.1560E+01  0.2649E+02
   6.195  0.1556E+01  0.2651E+02
   6.205  0.1551E+01  0.2652E+02
   6.215  0.1546E+01  0.2654E+02
   6.225  0.1541E+01  0.2655E+02
   6.235  0.1537E+01  0.2657E+02
   6.245  0.1532E+01  0.2658E+02
   6.255  0.1527E+01  0.2660E+02
   6.265  0.1521E+01  0.2661E+02
   6.275  0.1516E+01  0.2663E+02
   6.285  0.1511E+01  0.2664E+02
   6.295  0.1505E+01  0.2666E+02
   6.305  0.1500E+01  0.2667E+02
   6.315  0.1494E+01  0.2669E+02
   6.325  0.1489E+01  0.2670E+02
   6.335  0.1483E+01  0.2672E+02
   6.345  0.1477E+01  0.2673E+02
   6.355  0.1471E+01  0.2675E+02
   6.365  0.1465E+01  0.2676E+02
   6.375  0.1459E+01  0.2678E+02
   6.385  0.1453E+01  0.2679E+02
   6.395  0.1446E+01  0.2681E+02
   6.405  0.1440E+01  0.2682E+02
   6.415  0.1434E+01  0.2683E+02
   6.425  0.1427E+01  0.2685E+02
   6.435  0.1420E+01  0.2686E+02
   6.445  0.1413E+01  0.2688E+02
   6.455  0.1407E+01  0.2689E+02
   6.465  0.1400E+01  0.2691E+02
   6.475  0.1392E+01  0.2692E+02
   6.485  0.1385E+01  0.2693E+02
   6.495  0.1378E+01  0.2695E+02
   6.505  0.1371E+01  0.2696E+02
   6.515  0.1363E+01  0.2697E+02
   6.525  0.1355E+01  0.2699E+02
   6.535  0.1348E+01  0.2700E+02
   6.545  0.1340E+01  0.2701E+02
   6.555  0.1332E+01  0.2703E+02
   6.565  0.1324E+01  0.2704E+02
   6.575  0.1316E+01  0.2705E+02
   6.585  0.1308E+01  0.2707E+02
   6.595  0.1300E+01  0.2708E+02
   6.605  0.1291E+01  0.2709E+02
   6.615  0.1283E+01  0.2711E+02
   6.625  0.1274E+01  0.2712E+02
   6.635  0.1265E+01  0.2713E+02
   6.645  0.1257E+01  0.2714E+02
   6.655  0.1248E+01  0.2716E+02
   6.665  0.1239E+01  0.2717E+02
   6.675  0.1230E+01  0.2718E+02
   6.685  0.1220E+01  0.2719E+02
   6.695  0.1211E+01  0.2721E+02
   6.705  0.1202E+01  0.2722E+02
   6.715  0.1192E+01  0.2723E+02
   6.725  0.1183E+01  0.2724E+02
   6.735  0.1173E+01  0.2725E+02
   6.745  0.1164E+01  0.2726E+02
   6.755  0.1154E+01  0.2728E+02
   6.765  0.1144E+01  0.2729E+02
   6.775  0.1134E+01  0.2730E+02
   6.785  0.1124E+01  0.2731E+02
   6.795  0.1114E+01  0.2732E+02
   6.805  0.1104E+01  0.2733E+02
   6.815  0.1094E+01  0.2734E+02
   6.825  0.1083E+01  0.2735E+02
   6.835  0.1073E+01  0.2736E+02
   6.845  0.1062E+01  0.2738E+02
   6.855  0.1052E+01  0.2739E+02
   6.865  0.1042E+01  0.2740E+02
   6.875  0.1031E+01  0.2741E+02
   6.885  0.1020E+01  0.2742E+02
   6.895  0.1010E+01  0.2743E+02
   6.905  0.9991E+00  0.2744E+02
   6.915  0.9884E+00  0.2745E+02
   6.925  0.9777E+00  0.2746E+02
   6.935  0.9669E+00  0.2747E+02
   6.945  0.9561E+00  0.2748E+02
   6.955  0.9453E+00  0.2749E+02
   6.965  0.9345E+00  0.2749E+02
   6.975  0.9237E+00  0.2750E+02
   6.985  0.9128E+00  0.2751E+02
   6.995  0.9020E+00  0.2752E+02
   7.005  0.8912E+00  0.2753E+02
   7.015  0.8803E+00  0.2754E+02
   7.025  0.8695E+00  0.2755E+02
   7.035  0.8587E+00  0.2756E+02
   7.045  0.8479E+00  0.2757E+02
   7.055  0.8371E+00  0.2757E+02
   7.065  0.8263E+00  0.2758E+02
   7.075  0.8156E+00  0.2759E+02
   7.085  0.8049E+00  0.2760E+02
   7.095  0.7942E+00  0.2761E+02
   7.105  0.7835E+00  0.2761E+02
   7.115  0.7729E+00  0.2762E+02
   7.125  0.7624E+00  0.2763E+02
   7.135  0.7518E+00  0.2764E+02
   7.145  0.7414E+00  0.2764E+02
   7.155  0.7310E+00  0.2765E+02
   7.165  0.7206E+00  0.2766E+02
   7.175  0.7103E+00  0.2767E+02
   7.185  0.7000E+00  0.2767E+02
   7.195  0.6899E+00  0.2768E+02
   7.205  0.6797E+00  0.2769E+02
   7.215  0.6697E+00  0.2769E+02
   7.225  0.6597E+00  0.2770E+02
   7.235  0.6498E+00  0.2771E+02
   7.245  0.6400E+00  0.2771E+02
   7.255  0.6302E+00  0.2772E+02
   7.265  0.6206E+00  0.2773E+02
   7.275  0.6110E+00  0.2773E+02
   7.285  0.6015E+00  0.2774E+02
   7.295  0.5921E+00  0.2774E+02
   7.305  0.5828E+00  0.2775E+02
   7.315  0.5735E+00  0.2775E+02
   7.325  0.5644E+00  0.2776E+02
   7.335  0.5553E+00  0.2777E+02
   7.345  0.5464E+00  0.2777E+02
   7.355  0.5375E+00  0.2778E+02
   7.365  0.5288E+00  0.2778E+02
   7.375  0.5201E+00  0.2779E+02
   7.385  0.5116E+00  0.2779E+02
   7.395  0.5031E+00  0.2780E+02
   7.405  0.4948E+00  0.2780E+02
   7.415  0.4865E+00  0.2781E+02
   7.425  0.4784E+00  0.2781E+02
   7.435  0.4703E+00  0.2782E+02
   7.445  0.4624E+00  0.2782E+02
   7.455  0.4546E+00  0.2783E+02
   7.465  0.4469E+00  0.2783E+02
   7.475  0.4393E+00  0.2783E+02
   7.485  0.4318E+00  0.2784E+02
   7.495  0.4244E+00  0.2784E+02
   7.505  0.4172E+00  0.2785E+02
   7.515  0.4100E+00  0.2785E+02
   7.525  0.4030E+00  0.2786E+02
   7.535  0.3961E+00  0.2786E+02
   7.545  0.3893E+00  0.2786E+02
   7.555  0.3826E+00  0.2787E+02
   7.565  0.3761E+00  0.2787E+02
   7.575  0.3696E+00  0.2787E+02
   7.585  0.3633E+00  0.2788E+02
   7.595  0.3571E+00  0.2788E+02
   7.605  0.3510E+00  0.2789E+02
   7.615  0.3451E+00  0.2789E+02
   7.625  0.3392E+00  0.2789E+02
   7.635  0.3335E+00  0.2790E+02
   7.645  0.3279E+00  0.2790E+02
   7.655  0.3225E+00  0.2790E+02
   7.665  0.3171E+00  0.2791E+02
   7.675  0.3119E+00  0.2791E+02
   7.685  0.3068E+00  0.2791E+02
   7.695  0.3019E+00  0.2791E+02
   7.705  0.2970E+00  0.2792E+02
   7.715  0.2923E+00  0.2792E+02
   7.725  0.2878E+00  0.2792E+02
   7.735  0.2833E+00  0.2793E+02
   7.745  0.2790E+00  0.2793E+02
   7.755  0.2749E+00  0.2793E+02
   7.765  0.2709E+00  0.2793E+02
   7.775  0.2670E+00  0.2794E+02
   7.785  0.2632E+00  0.2794E+02
   7.795  0.2596E+00  0.2794E+02
   7.805  0.2561E+00  0.2795E+02
   7.815  0.2528E+00  0.2795E+02
   7.825  0.2496E+00  0.2795E+02
   7.835  0.2465E+00  0.2795E+02
   7.845  0.2436E+00  0.2795E+02
   7.855  0.2409E+00  0.2796E+02
   7.865  0.2383E+00  0.2796E+02
   7.875  0.2358E+00  0.2796E+02
   7.885  0.2335E+00  0.2796E+02
   7.895  0.2314E+00  0.2797E+02
   7.905  0.2294E+00  0.2797E+02
   7.915  0.2275E+00  0.2797E+02
   7.925  0.2259E+00  0.2797E+02
   7.935  0.2243E+00  0.2798E+02
   7.945  0.2230E+00  0.2798E+02
   7.955  0.2218E+00  0.2798E+02
   7.965  0.2207E+00  0.2798E+02
   7.975  0.2199E+00  0.2798E+02
   7.985  0.2191E+00  0.2799E+02
   7.995  0.2186E+00  0.2799E+02
   8.005  0.2182E+00  0.2799E+02
   8.015  0.2180E+00  0.2799E+02
   8.025  0.2180E+00  0.2800E+02
   8.035  0.2182E+00  0.2800E+02
   8.045  0.2185E+00  0.2800E+02
   8.055  0.2190E+00  0.2800E+02
   8.065  0.2197E+00  0.2800E+02
   8.075  0.2206E+00  0.2801E+02
   8.085  0.2216E+00  0.2801E+02
   8.095  0.2229E+00  0.2801E+02
   8.105  0.2243E+00  0.2801E+02
   8.115  0.2259E+00  0.2802E+02
   8.125  0.2277E+00  0.2802E+02
   8.135  0.2297E+00  0.2802E+02
   8.145  0.2319E+00  0.2802E+02
   8.155  0.2343E+00  0.2802E+02
   8.165  0.2369E+00  0.2803E+02
   8.175  0.2396E+00  0.2803E+02
   8.185  0.2426E+00  0.2803E+02
   8.195  0.2458E+00  0.2803E+02
   8.205  0.2492E+00  0.2804E+02
   8.215  0.2528E+00  0.2804E+02
   8.225  0.2566E+00  0.2804E+02
   8.235  0.2606E+00  0.2804E+02
   8.245  0.2648E+00  0.2805E+02
   8.255  0.2693E+00  0.2805E+02
   8.265  0.2739E+00  0.2805E+02
   8.275  0.2787E+00  0.2806E+02
   8.285  0.2838E+00  0.2806E+02
   8.295  0.2891E+00  0.2806E+02
   8.305  0.2946E+00  0.2806E+02
   8.315  0.3003E+00  0.2807E+02
   8.325  0.3063E+00  0.2807E+02
   8.335  0.3124E+00  0.2807E+02
   8.345  0.3188E+00  0.2808E+02
   8.355  0.3254E+00  0.2808E+02
   8.365  0.3322E+00  0.2808E+02
   8.375  0.3393E+00  0.2809E+02
   8.385  0.3465E+00  0.2809E+02
   8.395  0.3540E+00  0.2809E+02
   8.405  0.3617E+00  0.2810E+02
   8.415  0.3697E+00  0.2810E+02
   8.425  0.3778E+00  0.2810E+02
   8.435  0.3862E+00  0.2811E+02
   8.445  0.3948E+00  0.2811E+02
   8.455  0.4037E+00  0.2812E+02
   8.465  0.4127E+00  0.2812E+02
   8.475  0.4220E+00  0.2812E+02
   8.485  0.4315E+00  0.2813E+02
   8.495  0.4412E+00  0.2813E+02
   8.505  0.4511E+00  0.2814E+02
   8.515  0.4613E+00  0.2814E+02
   8.525  0.4716E+00  0.2815E+02
   8.535  0.4822E+00  0.2815E+02
   8.545  0.4930E+00  0.2816E+02
   8.555  0.5040E+00  0.2816E+02
   8.565  0.5152E+00  0.2817E+02
   8.575  0.5266E+00  0.2817E+02
   8.585  0.5382E+00  0.2818E+02
   8.595  0.5500E+00  0.2818E+02
   8.605  0.5620E+00  0.2819E+02
   8.615  0.5742E+00  0.2819E+02
   8.625  0.5866E+00  0.2820E+02
   8.635  0.5991E+00  0.2821E+02
   8.645  0.6119E+00  0.2821E+02
   8.655  0.6248E+00  0.2822E+02
   8.665  0.6379E+00  0.2823E+02
   8.675  0.6511E+00  0.2823E+02
   8.685  0.6646E+00  0.2824E+02
   8.695  0.6781E+00  0.2825E+02
   8.705  0.6919E+00  0.2825E+02
   8.715  0.7057E+00  0.2826E+02
   8.725  0.7197E+00  0.2827E+02
   8.735  0.7339E+00  0.2827E+02
   8.745  0.7481E+00  0.2828E+02
   8.755  0.7625E+00  0.2829E+02
   8.765  0.7770E+00  0.2830E+02
   8.775  0.7916E+00  0.2830E+02
   8.785  0.8063E+00  0.2831E+02
   8.795  0.8211E+00  0.2832E+02
   8.805  0.8360E+00  0.2833E+02
   8.815  0.8509E+00  0.2834E+02
   8.825  0.8659E+00  0.2835E+02
   8.835  0.8810E+00  0.2836E+02
   8.845  0.8961E+00  0.2836E+02
   8.855  0.9112E+00  0.2837E+02
   8.865  0.9264E+00  0.2838E+02
   8.875  0.9416E+00  0.2839E+02
   8.885  0.9568E+00  0.2840E+02
   8.895  0.9720E+00  0.2841E+02
   8.905  0.9872E+00  0.2842E+02
   8.915  0.1002E+01  0.2843E+02
   8.925  0.1018E+01  0.2844E+02
   8.935  0.1033E+01  0.2845E+02
   8.945  0.1048E+01  0.2846E+02
   8.955  0.1063E+01  0.2847E+02
   8.965  0.1078E+01  0.2848E+02
   8.975  0.1092E+01  0.2849E+02
   8.985  0.1107E+01  0.2851E+02
   8.995  0.1122E+01  0.2852E+02
   9.005  0.1136E+01  0.2853E+02
   9.015  0.1151E+01  0.2854E+02
   9.025  0.1165E+01  0.2855E+02
   9.035  0.1179E+01  0.2856E+02
   9.045  0.1193E+01  0.2858E+02
   9.055  0.1207E+01  0.2859E+02
   9.065  0.1221E+01  0.2860E+02
   9.075  0.1234E+01  0.2861E+02
   9.085  0.1248E+01  0.2862E+02
   9.095  0.1261E+01  0.2864E+02
   9.105  0.1274E+01  0.2865E+02
   9.115  0.1286E+01  0.2866E+02
   9.125  0.1299E+01  0.2868E+02
   9.135  0.1311E+01  0.2869E+02
   9.145  0.1323E+01  0.2870E+02
   9.155  0.1335E+01  0.2872E+02
   9.165  0.1346E+01  0.2873E+02
   9.175  0.1357E+01  0.2874E+02
   9.185  0.1368E+01  0.2876E+02
   9.195  0.1379E+01  0.2877E+02
   9.205  0.1389E+01  0.2878E+02
   9.215  0.1399E+01  0.2880E+02
   9.225  0.1409E+01  0.2881E+02
   9.235  0.1418E+01  0.2883E+02
   9.245  0.1427E+01  0.2884E+02
   9.255  0.1436E+01  0.2885E+02
   9.265  0.1444E+01  0.2887E+02
   9.275  0.1452E+01  0.2888E+02
   9.285  0.1460E+01  0.2890E+02
   9.295  0.1468E+01  0.2891E+02
   9.305  0.1475E+01  0.2893E+02
   9.315  0.1481E+01  0.2894E+02
   9.325  0.1488E+01  0.2896E+02
   9.335  0.1494E+01  0.2897E+02
   9.345  0.1499E+01  0.2899E+02
   9.355  0.1505E+01  0.2900E+02
   9.365  0.1510E+01  0.2902E+02
   9.375  0.1514E+01  0.2903E+02
   9.385  0.1519E+01  0.2905E+02
   9.395  0.1523E+01  0.2906E+02
   9.405  0.1526E+01  0.2908E+02
   9.415  0.1530E+01  0.2909E+02
   9.425  0.1532E+01  0.2911E+02
   9.435  0.1535E+01  0.2912E+02
   9.445  0.1537E+01  0.2914E+02
   9.455  0.1539E+01  0.2915E+02
   9.465  0.1541E+01  0.2917E+02
   9.475  0.1542E+01  0.2919E+02
   9.485  0.1543E+01  0.2920E+02
   9.495  0.1543E+01  0.2922E+02
   9.505  0.1544E+01  0.2923E+02
   9.515  0.1544E+01  0.2925E+02
   9.525  0.1543E+01  0.2926E+02
   9.535  0.1543E+01  0.2928E+02
   9.545  0.1542E+01  0.2929E+02
   9.555  0.1541E+01  0.2931E+02
   9.565  0.1539E+01  0.2932E+02
   9.575  0.1537E+01  0.2934E+02
   9.585  0.1535E+01  0.2935E+02
   9.595  0.1533E+01  0.2937E+02
   9.605  0.1531E+01  0.2939E+02
   9.615  0.1528E+01  0.2940E+02
   9.625  0.1525E+01  0.2942E+02
   9.635  0.1522E+01  0.2943E+02
   9.645  0.1519E+01  0.2945E+02
   9.655  0.1515E+01  0.2946E+02
   9.665  0.1511E+01  0.2948E+02
   9.675  0.1507E+01  0.2949E+02
   9.685  0.1503E+01  0.2951E+02
   9.695  0.1499E+01  0.2952E+02
   9.705  0.1494E+01  0.2954E+02
   9.715  0.1490E+01  0.2955E+02
   9.725  0.1485E+01  0.2957E+02
   9.735  0.1480E+01  0.2958E+02
   9.745  0.1475E+01  0.2960E+02
   9.755  0.1470E+01  0.2961E+02
   9.765  0.1465E+01  0.2963E+02
   9.775  0.1460E+01  0.2964E+02
   9.785  0.1455E+01  0.2965E+02
   9.795  0.1449E+01  0.2967E+02
   9.805  0.1444E+01  0.2968E+02
   9.815  0.1438E+01  0.2970E+02
   9.825  0.1433E+01  0.2971E+02
   9.835  0.1427E+01  0.2973E+02
   9.845  0.1422E+01  0.2974E+02
   9.855  0.1416E+01  0.2975E+02
   9.865  0.1410E+01  0.2977E+02
   9.875  0.1405E+01  0.2978E+02
   9.885  0.1399E+01  0.2980E+02
   9.895  0.1393E+01  0.2981E+02
   9.905  0.1388E+01  0.2982E+02
   9.915  0.1382E+01  0.2984E+02
   9.925  0.1377E+01  0.2985E+02
   9.935  0.1372E+01  0.2987E+02
   9.945  0.1366E+01  0.2988E+02
   9.955  0.1361E+01  0.2989E+02
   9.965  0.1356E+01  0.2991E+02
   9.975  0.1350E+01  0.2992E+02
   9.985  0.1345E+01  0.2993E+02
   9.995  0.1340E+01  0.2995E+02
  10.005  0.1336E+01  0.2996E+02
  10.015  0.1331E+01  0.2997E+02
  10.025  0.1326E+01  0.2999E+02
  10.035  0.1322E+01  0.3000E+02
  10.045  0.1317E+01  0.3001E+02
  10.055  0.1313E+01  0.3003E+02
  10.065  0.1309E+01  0.3004E+02
  10.075  0.1305E+01  0.3005E+02
  10.085  0.1301E+01  0.3007E+02
  10.095  0.1297E+01  0.3008E+02
  10.105  0.1294E+01  0.3009E+02
  10.115  0.1290E+01  0.3010E+02
  10.125  0.1287E+01  0.3012E+02
  10.135  0.1284E+01  0.3013E+02
  10.145  0.1281E+01  0.3014E+02
  10.155  0.1279E+01  0.3016E+02
  10.165  0.1276E+01  0.3017E+02
  10.175  0.1274E+01  0.3018E+02
  10.185  0.1272E+01  0.3019E+02
  10.195  0.1270E+01  0.3021E+02
  10.205  0.1268E+01  0.3022E+02
  10.215  0.1266E+01  0.3023E+02
  10.225  0.1265E+01  0.3025E+02
  10.235  0.1263E+01  0.3026E+02
  10.245  0.1262E+01  0.3027E+02
  10.255  0.1262E+01  0.3028E+02
  10.265  0.1261E+01  0.3030E+02
  10.275  0.1260E+01  0.3031E+02
  10.285  0.1260E+01  0.3032E+02
  10.295  0.1260E+01  0.3033E+02
  10.305  0.1260E+01  0.3035E+02
  10.315  0.1260E+01  0.3036E+02
  10.325  0.1261E+01  0.3037E+02
  10.335  0.1261E+01  0.3038E+02
  10.345  0.1262E+01  0.3040E+02
  10.355  0.1263E+01  0.3041E+02
  10.365  0.1265E+01  0.3042E+02
  10.375  0.1266E+01  0.3043E+02
  10.385  0.1268E+01  0.3045E+02
  10.395  0.1269E+01  0.3046E+02
  10.405  0.1271E+01  0.3047E+02
  10.415  0.1273E+01  0.3049E+02
  10.425  0.1276E+01  0.3050E+02
  10.435  0.1278E+01  0.3051E+02
  10.445  0.1281E+01  0.3052E+02
  10.455  0.1283E+01  0.3054E+02
  10.465  0.1286E+01  0.3055E+02
  10.475  0.1289E+01  0.3056E+02
  10.485  0.1292E+01  0.3057E+02
  10.495  0.1296E+01  0.3059E+02
  10.505  0.1299E+01  0.3060E+02
  10.515  0.1303E+01  0.3061E+02
  10.525  0.1306E+01  0.3063E+02
  10.535  0.1310E+01  0.3064E+02
  10.545  0.1314E+01  0.3065E+02
  10.555  0.1318E+01  0.3067E+02
  10.565  0.1322E+01  0.3068E+02
  10.575  0.1327E+01  0.3069E+02
  10.585  0.1331E+01  0.3071E+02
  10.595  0.1335E+01  0.3072E+02
  10.605  0.1340E+01  0.3073E+02
  10.615  0.1344E+01  0.3075E+02
  10.625  0.1349E+01  0.3076E+02
  10.635  0.1354E+01  0.3077E+02
  10.645  0.1359E+01  0.3079E+02
  10.655  0.1363E+01  0.3080E+02
  10.665  0.1368E+01  0.3081E+02
  10.675  0.1373E+01  0.3083E+02
  10.685  0.1378E+01  0.3084E+02
  10.695  0.1383E+01  0.3086E+02
  10.705  0.1388E+01  0.3087E+02
  10.715  0.1393E+01  0.3088E+02
  10.725  0.1398E+01  0.3090E+02
  10.735  0.1403E+01  0.3091E+02
  10.745  0.1408E+01  0.3093E+02
  10.755  0.1413E+01  0.3094E+02
  10.765  0.1418E+01  0.3095E+02
  10.775  0.1423E+01  0.3097E+02
  10.785  0.1428E+01  0.3098E+02
  10.795  0.1433E+01  0.3100E+02
  10.805  0.1438E+01  0.3101E+02
  10.815  0.1442E+01  0.3103E+02
  10.825  0.1447E+01  0.3104E+02
  10.835  0.1452E+01  0.3105E+02
  10.845  0.1457E+01  0.3107E+02
  10.855  0.1461E+01  0.3108E+02
  10.865  0.1466E+01  0.3110E+02
  10.875  0.1470E+01  0.3111E+02
  10.885  0.1474E+01  0.3113E+02
  10.895  0.1479E+01  0.3114E+02
  10.905  0.1483E+01  0.3116E+02
  10.915  0.1487E+01  0.3117E+02
  10.925  0.1491E+01  0.3119E+02
  10.935  0.1495E+01  0.3120E+02
  10.945  0.1499E+01  0.3122E+02
  10.955  0.1502E+01  0.3123E+02
  10.965  0.1506E+01  0.3125E+02
  10.975  0.1509E+01  0.3126E+02
  10.985  0.1513E+01  0.3128E+02
  10.995  0.1516E+01  0.3129E+02
  11.005  0.1519E+01  0.3131E+02
  11.015  0.1522E+01  0.3132E+02
  11.025  0.1525E+01  0.3134E+02
  11.035  0.1527E+01  0.3135E+02
  11.045  0.1530E+01  0.3137E+02
  11.055  0.1532E+01  0.3138E+02
  11.065  0.1535E+01  0.3140E+02
  11.075  0.1537E+01  0.3141E+02
  11.085  0.1539E+01  0.3143E+02
  11.095  0.1541E+01  0.3145E+02
  11.105  0.1543E+01  0.3146E+02
  11.115  0.1544E+01  0.3148E+02
  11.125  0.1546E+01  0.3149E+02
  11.135  0.1547E+01  0.3151E+02
  11.145  0.1549E+01  0.3152E+02
  11.155  0.1550E+01  0.3154E+02
  11.165  0.1551E+01  0.3155E+02
  11.175  0.1552E+01  0.3157E+02
  11.185  0.1553E+01  0.3158E+02
  11.195  0.1553E+01  0.3160E+02
  11.205  0.1554E+01  0.3162E+02
  11.215  0.1555E+01  0.3163E+02
  11.225  0.1555E+01  0.3165E+02
  11.235  0.1555E+01  0.3166E+02
  11.245  0.1555E+01  0.3168E+02
  11.255  0.1556E+01  0.3169E+02
  11.265  0.1556E+01  0.3171E+02
  11.275  0.1556E+01  0.3172E+02
  11.285  0.1556E+01  0.3174E+02
  11.295  0.1555E+01  0.3176E+02
  11.305  0.1555E+01  0.3177E+02
  11.315  0.1555E+01  0.3179E+02
  11.325  0.1555E+01  0.3180E+02
  11.335  0.1554E+01  0.3182E+02
  11.345  0.1554E+01  0.3183E+02
  11.355  0.1553E+01  0.3185E+02
  11.365  0.1553E+01  0.3186E+02
  11.375  0.1552E+01  0.3188E+02
  11.385  0.1552E+01  0.3190E+02
  11.395  0.1551E+01  0.3191E+02
  11.405  0.1551E+01  0.3193E+02
  11.415  0.1550E+01  0.3194E+02
  11.425  0.1550E+01  0.3196E+02
  11.435  0.1550E+01  0.3197E+02
  11.445  0.1549E+01  0.3199E+02
  11.455  0.1549E+01  0.3200E+02
  11.465  0.1548E+01  0.3202E+02
  11.475  0.1548E+01  0.3204E+02
  11.485  0.1548E+01  0.3205E+02
  11.495  0.1548E+01  0.3207E+02
  11.505  0.1547E+01  0.3208E+02
  11.515  0.1547E+01  0.3210E+02
  11.525  0.1547E+01  0.3211E+02
  11.535  0.1547E+01  0.3213E+02
  11.545  0.1548E+01  0.3214E+02
  11.555  0.1548E+01  0.3216E+02
  11.565  0.1548E+01  0.3217E+02
  11.575  0.1548E+01  0.3219E+02
  11.585  0.1549E+01  0.3221E+02
  11.595  0.1549E+01  0.3222E+02
  11.605  0.1550E+01  0.3224E+02
  11.615  0.1551E+01  0.3225E+02
  11.625  0.1552E+01  0.3227E+02
  11.635  0.1553E+01  0.3228E+02
  11.645  0.1554E+01  0.3230E+02
  11.655  0.1555E+01  0.3231E+02
  11.665  0.1556E+01  0.3233E+02
  11.675  0.1557E+01  0.3235E+02
  11.685  0.1558E+01  0.3236E+02
  11.695  0.1560E+01  0.3238E+02
  11.705  0.1561E+01  0.3239E+02
  11.715  0.1563E+01  0.3241E+02
  11.725  0.1565E+01  0.3242E+02
  11.735  0.1566E+01  0.3244E+02
  11.745  0.1568E+01  0.3245E+02
  11.755  0.1570E+01  0.3247E+02
  11.765  0.1572E+01  0.3249E+02
  11.775  0.1574E+01  0.3250E+02
  11.785  0.1576E+01  0.3252E+02
  11.795  0.1578E+01  0.3253E+02
  11.805  0.1580E+01  0.3255E+02
  11.815  0.1582E+01  0.3257E+02
  11.825  0.1584E+01  0.3258E+02
  11.835  0.1587E+01  0.3260E+02
  11.845  0.1589E+01  0.3261E+02
  11.855  0.1591E+01  0.3263E+02
  11.865  0.1593E+01  0.3264E+02
  11.875  0.1595E+01  0.3266E+02
  11.885  0.1597E+01  0.3268E+02
  11.895  0.1599E+01  0.3269E+02
  11.905  0.1602E+01  0.3271E+02
  11.915  0.1604E+01  0.3272E+02
  11.925  0.1605E+01  0.3274E+02
  11.935  0.1607E+01  0.3276E+02
  11.945  0.1609E+01  0.3277E+02
  11.955  0.1611E+01  0.3279E+02
  11.965  0.1613E+01  0.3280E+02
  11.975  0.1614E+01  0.3282E+02
  11.985  0.1616E+01  0.3284E+02
  11.995  0.1617E+01  0.3285E+02
  12.005  0.1619E+01  0.3287E+02
  12.015  0.1620E+01  0.3289E+02
  12.025  0.1621E+01  0.3290E+02
  12.035  0.1622E+01  0.3292E+02
  12.045  0.1623E+01  0.3293E+02
  12.055  0.1624E+01  0.3295E+02
  12.065  0.1624E+01  0.3297E+02
  12.075  0.1625E+01  0.3298E+02
  12.085  0.1625E+01  0.3300E+02
  12.095  0.1625E+01  0.3302E+02
  12.105  0.1625E+01  0.3303E+02
  12.115  0.1625E+01  0.3305E+02
  12.125  0.1625E+01  0.3306E+02
  12.135  0.1624E+01  0.3308E+02
  12.145  0.1624E+01  0.3310E+02
  12.155  0.1623E+01  0.3311E+02
  12.165  0.1622E+01  0.3313E+02
  12.175  0.1621E+01  0.3315E+02
  12.185  0.1620E+01  0.3316E+02
  12.195  0.1619E+01  0.3318E+02
  12.205  0.1618E+01  0.3319E+02
  12.215  0.1616E+01  0.3321E+02
  12.225  0.1614E+01  0.3323E+02
  12.235  0.1612E+01  0.3324E+02
  12.245  0.1610E+01  0.3326E+02
  12.255  0.1608E+01  0.3327E+02
  12.265  0.1606E+01  0.3329E+02
  12.275  0.1603E+01  0.3331E+02
  12.285  0.1601E+01  0.3332E+02
  12.295  0.1598E+01  0.3334E+02
  12.305  0.1595E+01  0.3335E+02
  12.315  0.1592E+01  0.3337E+02
  12.325  0.1589E+01  0.3339E+02
  12.335  0.1586E+01  0.3340E+02
  12.345  0.1583E+01  0.3342E+02
  12.355  0.1580E+01  0.3343E+02
  12.365  0.1576E+01  0.3345E+02
  12.375  0.1572E+01  0.3347E+02
  12.385  0.1569E+01  0.3348E+02
  12.395  0.1565E+01  0.3350E+02
  12.405  0.1561E+01  0.3351E+02
  12.415  0.1557E+01  0.3353E+02
  12.425  0.1553E+01  0.3354E+02
  12.435  0.1549E+01  0.3356E+02
  12.445  0.1545E+01  0.3357E+02
  12.455  0.1541E+01  0.3359E+02
  12.465  0.1537E+01  0.3361E+02
  12.475  0.1533E+01  0.3362E+02
  12.485  0.1529E+01  0.3364E+02
  12.495  0.1524E+01  0.3365E+02
  12.505  0.1520E+01  0.3367E+02
  12.515  0.1516E+01  0.3368E+02
  12.525  0.1511E+01  0.3370E+02
  12.535  0.1507E+01  0.3371E+02
  12.545  0.1502E+01  0.3373E+02
  12.555  0.1498E+01  0.3374E+02
  12.565  0.1494E+01  0.3376E+02
  12.575  0.1489E+01  0.3377E+02
  12.585  0.1485E+01  0.3379E+02
  12.595  0.1480E+01  0.3380E+02
  12.605  0.1476E+01  0.3382E+02
  12.615  0.1471E+01  0.3383E+02
  12.625  0.1467E+01  0.3385E+02
  12.635  0.1463E+01  0.3386E+02
  12.645  0.1458E+01  0.3387E+02
  12.655  0.1454E+01  0.3389E+02
  12.665  0.1450E+01  0.3390E+02
  12.675  0.1446E+01  0.3392E+02
  12.685  0.1441E+01  0.3393E+02
  12.695  0.1437E+01  0.3395E+02
  12.705  0.1433E+01  0.3396E+02
  12.715  0.1429E+01  0.3398E+02
  12.725  0.1425E+01  0.3399E+02
  12.735  0.1421E+01  0.3400E+02
  12.745  0.1417E+01  0.3402E+02
  12.755  0.1413E+01  0.3403E+02
  12.765  0.1409E+01  0.3405E+02
  12.775  0.1405E+01  0.3406E+02
  12.785  0.1401E+01  0.3407E+02
  12.795  0.1397E+01  0.3409E+02
  12.805  0.1394E+01  0.3410E+02
  12.815  0.1390E+01  0.3412E+02
  12.825  0.1386E+01  0.3413E+02
  12.835  0.1383E+01  0.3414E+02
  12.845  0.1379E+01  0.3416E+02
  12.855  0.1376E+01  0.3417E+02
  12.865  0.1372E+01  0.3419E+02
  12.875  0.1369E+01  0.3420E+02
  12.885  0.1366E+01  0.3421E+02
  12.895  0.1362E+01  0.3423E+02
  12.905  0.1359E+01  0.3424E+02
  12.915  0.1356E+01  0.3425E+02
  12.925  0.1353E+01  0.3427E+02
  12.935  0.1350E+01  0.3428E+02
  12.945  0.1347E+01  0.3429E+02
  12.955  0.1344E+01  0.3431E+02
  12.965  0.1341E+01  0.3432E+02
  12.975  0.1338E+01  0.3433E+02
  12.985  0.1336E+01  0.3435E+02
  12.995  0.1333E+01  0.3436E+02
  13.005  0.1330E+01  0.3437E+02
  13.015  0.1328E+01  0.3439E+02
  13.025  0.1325E+01  0.3440E+02
  13.035  0.1323E+01  0.3441E+02
  13.045  0.1320E+01  0.3443E+02
  13.055  0.1318E+01  0.3444E+02
  13.065  0.1316E+01  0.3445E+02
  13.075  0.1313E+01  0.3447E+02
  13.085  0.1311E+01  0.3448E+02
  13.095  0.1309E+01  0.3449E+02
  13.105  0.1307E+01  0.3451E+02
  13.115  0.1305E+01  0.3452E+02
  13.125  0.1303E+01  0.3453E+02
  13.135  0.1301E+01  0.3454E+02
  13.145  0.1299E+01  0.3456E+02
  13.155  0.1297E+01  0.3457E+02
  13.165  0.1295E+01  0.3458E+02
  13.175  0.1294E+01  0.3460E+02
  13.185  0.1292E+01  0.3461E+02
  13.195  0.1290E+01  0.3462E+02
  13.205  0.1289E+01  0.3464E+02
  13.215  0.1287E+01  0.3465E+02
  13.225  0.1286E+01  0.3466E+02
  13.235  0.1284E+01  0.3467E+02
  13.245  0.1283E+01  0.3469E+02
  13.255  0.1281E+01  0.3470E+02
  13.265  0.1280E+01  0.3471E+02
  13.275  0.1279E+01  0.3473E+02
  13.285  0.1277E+01  0.3474E+02
  13.295  0.1276E+01  0.3475E+02
  13.305  0.1275E+01  0.3476E+02
  13.315  0.1274E+01  0.3478E+02
  13.325  0.1273E+01  0.3479E+02
  13.335  0.1272E+01  0.3480E+02
  13.345  0.1271E+01  0.3481E+02
  13.355  0.1270E+01  0.3483E+02
  13.365  0.1269E+01  0.3484E+02
  13.375  0.1268E+01  0.3485E+02
  13.385  0.1267E+01  0.3487E+02
  13.395  0.1266E+01  0.3488E+02
  13.405  0.1265E+01  0.3489E+02
  13.415  0.1264E+01  0.3490E+02
  13.425  0.1264E+01  0.3492E+02
  13.435  0.1263E+01  0.3493E+02
  13.445  0.1262E+01  0.3494E+02
  13.455  0.1262E+01  0.3495E+02
  13.465  0.1261E+01  0.3497E+02
  13.475  0.1260E+01  0.3498E+02
  13.485  0.1260E+01  0.3499E+02
  13.495  0.1259E+01  0.3500E+02
  13.505  0.1259E+01  0.3502E+02
  13.515  0.1258E+01  0.3503E+02
  13.525  0.1258E+01  0.3504E+02
  13.535  0.1258E+01  0.3505E+02
  13.545  0.1257E+01  0.3507E+02
  13.555  0.1257E+01  0.3508E+02
  13.565  0.1257E+01  0.3509E+02
  13.575  0.1256E+01  0.3510E+02
  13.585  0.1256E+01  0.3512E+02
  13.595  0.1256E+01  0.3513E+02
  13.605  0.1256E+01  0.3514E+02
  13.615  0.1255E+01  0.3515E+02
  13.625  0.1255E+01  0.3517E+02
  13.635  0.1255E+01  0.3518E+02
  13.645  0.1255E+01  0.3519E+02
  13.655  0.1255E+01  0.3521E+02
  13.665  0.1255E+01  0.3522E+02
  13.675  0.1255E+01  0.3523E+02
  13.685  0.1255E+01  0.3524E+02
  13.695  0.1255E+01  0.3526E+02
  13.705  0.1255E+01  0.3527E+02
  13.715  0.1255E+01  0.3528E+02
  13.725  0.1255E+01  0.3529E+02
  13.735  0.1255E+01  0.3531E+02
  13.745  0.1256E+01  0.3532E+02
  13.755  0.1256E+01  0.3533E+02
  13.765  0.1256E+01  0.3534E+02
  13.775  0.1256E+01  0.3536E+02
  13.785  0.1257E+01  0.3537E+02
  13.795  0.1257E+01  0.3538E+02
  13.805  0.1258E+01  0.3539E+02
  13.815  0.1258E+01  0.3541E+02
  13.825  0.1258E+01  0.3542E+02
  13.835  0.1259E+01  0.3543E+02
  13.845  0.1260E+01  0.3544E+02
  13.855  0.1260E+01  0.3546E+02
  13.865  0.1261E+01  0.3547E+02
  13.875  0.1261E+01  0.3548E+02
  13.885  0.1262E+01  0.3549E+02
  13.895  0.1263E+01  0.3551E+02
  13.905  0.1264E+01  0.3552E+02
  13.915  0.1265E+01  0.3553E+02
  13.925  0.1266E+01  0.3554E+02
  13.935  0.1267E+01  0.3556E+02
  13.945  0.1268E+01  0.3557E+02
  13.955  0.1269E+01  0.3558E+02
  13.965  0.1270E+01  0.3560E+02
  13.975  0.1271E+01  0.3561E+02
  13.985  0.1272E+01  0.3562E+02
  13.995  0.1274E+01  0.3563E+02
  14.005  0.1275E+01  0.3565E+02
  14.015  0.1277E+01  0.3566E+02
  14.025  0.1278E+01  0.3567E+02
  14.035  0.1280E+01  0.3568E+02
  14.045  0.1281E+01  0.3570E+02
  14.055  0.1283E+01  0.3571E+02
  14.065  0.1285E+01  0.3572E+02
  14.075  0.1287E+01  0.3574E+02
  14.085  0.1289E+01  0.3575E+02
  14.095  0.1291E+01  0.3576E+02
  14.105  0.1293E+01  0.3577E+02
  14.115  0.1295E+01  0.3579E+02
  14.125  0.1298E+01  0.3580E+02
  14.135  0.1300E+01  0.3581E+02
  14.145  0.1302E+01  0.3583E+02
  14.155  0.1305E+01  0.3584E+02
  14.165  0.1307E+01  0.3585E+02
  14.175  0.1310E+01  0.3587E+02
  14.185  0.1313E+01  0.3588E+02
  14.195  0.1316E+01  0.3589E+02
  14.205  0.1319E+01  0.3591E+02
  14.215  0.1321E+01  0.3592E+02
  14.225  0.1325E+01  0.3593E+02
  14.235  0.1328E+01  0.3595E+02
  14.245  0.1331E+01  0.3596E+02
  14.255  0.1334E+01  0.3597E+02
  14.265  0.1338E+01  0.3599E+02
  14.275  0.1341E+01  0.3600E+02
  14.285  0.1344E+01  0.3601E+02
  14.295  0.1348E+01  0.3603E+02
  14.305  0.1352E+01  0.3604E+02
  14.315  0.1355E+01  0.3605E+02
  14.325  0.1359E+01  0.3607E+02
  14.335  0.1363E+01  0.3608E+02
  14.345  0.1367E+01  0.3609E+02
  14.355  0.1371E+01  0.3611E+02
  14.365  0.1375E+01  0.3612E+02
  14.375  0.1379E+01  0.3613E+02
  14.385  0.1383E+01  0.3615E+02
  14.395  0.1388E+01  0.3616E+02
  14.405  0.1392E+01  0.3618E+02
  14.415  0.1396E+01  0.3619E+02
  14.425  0.1401E+01  0.3620E+02
  14.435  0.1405E+01  0.3622E+02
  14.445  0.1410E+01  0.3623E+02
  14.455  0.1414E+01  0.3625E+02
  14.465  0.1419E+01  0.3626E+02
  14.475  0.1423E+01  0.3628E+02
  14.485  0.1428E+01  0.3629E+02
  14.495  0.1433E+01  0.3630E+02
  14.505  0.1437E+01  0.3632E+02
  14.515  0.1442E+01  0.3633E+02
  14.525  0.1447E+01  0.3635E+02
  14.535  0.1452E+01  0.3636E+02
  14.545  0.1457E+01  0.3638E+02
  14.555  0.1462E+01  0.3639E+02
  14.565  0.1467E+01  0.3641E+02
  14.575  0.1471E+01  0.3642E+02
  14.585  0.1476E+01  0.3643E+02
  14.595  0.1481E+01  0.3645E+02
  14.605  0.1486E+01  0.3646E+02
  14.615  0.1491E+01  0.3648E+02
  14.625  0.1496E+01  0.3649E+02
  14.635  0.1501E+01  0.3651E+02
  14.645  0.1506E+01  0.3652E+02
  14.655  0.1511E+01  0.3654E+02
  14.665  0.1516E+01  0.3655E+02
  14.675  0.1521E+01  0.3657E+02
  14.685  0.1526E+01  0.3659E+02
  14.695  0.1531E+01  0.3660E+02
  14.705  0.1536E+01  0.3662E+02
  14.715  0.1541E+01  0.3663E+02
  14.725  0.1546E+01  0.3665E+02
  14.735  0.1551E+01  0.3666E+02
  14.745  0.1556E+01  0.3668E+02
  14.755  0.1561E+01  0.3669E+02
  14.765  0.1566E+01  0.3671E+02
  14.775  0.1571E+01  0.3672E+02
  14.785  0.1576E+01  0.3674E+02
  14.795  0.1580E+01  0.3676E+02
  14.805  0.1585E+01  0.3677E+02
  14.815  0.1590E+01  0.3679E+02
  14.825  0.1595E+01  0.3680E+02
  14.835  0.1599E+01  0.3682E+02
  14.845  0.1604E+01  0.3684E+02
  14.855  0.1609E+01  0.3685E+02
  14.865  0.1613E+01  0.3687E+02
  14.875  0.1618E+01  0.3688E+02
  14.885  0.1622E+01  0.3690E+02
  14.895  0.1627E+01  0.3692E+02
  14.905  0.1631E+01  0.3693E+02
  14.915  0.1636E+01  0.3695E+02
  14.925  0.1640E+01  0.3697E+02
  14.935  0.1644E+01  0.3698E+02
  14.945  0.1648E+01  0.3700E+02
  14.955  0.1652E+01  0.3702E+02
  14.965  0.1657E+01  0.3703E+02
  14.975  0.1661E+01  0.3705E+02
  14.985  0.1665E+01  0.3707E+02
  14.995  0.1668E+01  0.3708E+02
  15.005  0.1672E+01  0.3710E+02
  15.015  0.1676E+01  0.3712E+02
  15.025  0.1680E+01  0.3713E+02
  15.035  0.1683E+01  0.3715E+02
  15.045  0.1687E+01  0.3717E+02
  15.055  0.1690E+01  0.3718E+02
  15.065  0.1694E+01  0.3720E+02
  15.075  0.1697E+01  0.3722E+02
  15.085  0.1700E+01  0.3723E+02
  15.095  0.1703E+01  0.3725E+02
  15.105  0.1706E+01  0.3727E+02
  15.115  0.1709E+01  0.3728E+02
  15.125  0.1712E+01  0.3730E+02
  15.135  0.1715E+01  0.3732E+02
  15.145  0.1718E+01  0.3734E+02
  15.155  0.1720E+01  0.3735E+02
  15.165  0.1723E+01  0.3737E+02
  15.175  0.1725E+01  0.3739E+02
  15.185  0.1727E+01  0.3741E+02
  15.195  0.1730E+01  0.3742E+02
  15.205  0.1732E+01  0.3744E+02
  15.215  0.1734E+01  0.3746E+02
  15.225  0.1736E+01  0.3747E+02
  15.235  0.1737E+01  0.3749E+02
  15.245  0.1739E+01  0.3751E+02
  15.255  0.1741E+01  0.3753E+02
  15.265  0.1742E+01  0.3754E+02
  15.275  0.1743E+01  0.3756E+02
  15.285  0.1745E+01  0.3758E+02
  15.295  0.1746E+01  0.3760E+02
  15.305  0.1747E+01  0.3761E+02
  15.315  0.1748E+01  0.3763E+02
  15.325  0.1749E+01  0.3765E+02
  15.335  0.1749E+01  0.3767E+02
  15.345  0.1750E+01  0.3768E+02
  15.355  0.1750E+01  0.3770E+02
  15.365  0.1751E+01  0.3772E+02
  15.375  0.1751E+01  0.3774E+02
  15.385  0.1751E+01  0.3775E+02
  15.395  0.1751E+01  0.3777E+02
  15.405  0.1751E+01  0.3779E+02
  15.415  0.1751E+01  0.3781E+02
  15.425  0.1751E+01  0.3782E+02
  15.435  0.1750E+01  0.3784E+02
  15.445  0.1750E+01  0.3786E+02
  15.455  0.1750E+01  0.3788E+02
  15.465  0.1749E+01  0.3789E+02
  15.475  0.1748E+01  0.3791E+02
  15.485  0.1748E+01  0.3793E+02
  15.495  0.1747E+01  0.3795E+02
  15.505  0.1746E+01  0.3796E+02
  15.515  0.1745E+01  0.3798E+02
  15.525  0.1744E+01  0.3800E+02
  15.535  0.1743E+01  0.3802E+02
  15.545  0.1742E+01  0.3803E+02
  15.555  0.1740E+01  0.3805E+02
  15.565  0.1739E+01  0.3807E+02
  15.575  0.1738E+01  0.3809E+02
  15.585  0.1737E+01  0.3810E+02
  15.595  0.1735E+01  0.3812E+02
  15.605  0.1734E+01  0.3814E+02
  15.615  0.1732E+01  0.3816E+02
  15.625  0.1731E+01  0.3817E+02
  15.635  0.1730E+01  0.3819E+02
  15.645  0.1728E+01  0.3821E+02
  15.655  0.1727E+01  0.3822E+02
  15.665  0.1725E+01  0.3824E+02
  15.675  0.1724E+01  0.3826E+02
  15.685  0.1722E+01  0.3828E+02
  15.695  0.1721E+01  0.3829E+02
  15.705  0.1719E+01  0.3831E+02
  15.715  0.1718E+01  0.3833E+02
  15.725  0.1717E+01  0.3834E+02
  15.735  0.1715E+01  0.3836E+02
  15.745  0.1714E+01  0.3838E+02
  15.755  0.1713E+01  0.3840E+02
  15.765  0.1712E+01  0.3841E+02
  15.775  0.1711E+01  0.3843E+02
  15.785  0.1710E+01  0.3845E+02
  15.795  0.1709E+01  0.3846E+02
  15.805  0.1708E+01  0.3848E+02
  15.815  0.1707E+01  0.3850E+02
  15.825  0.1706E+01  0.3852E+02
  15.835  0.1705E+01  0.3853E+02
  15.845  0.1705E+01  0.3855E+02
  15.855  0.1704E+01  0.3857E+02
  15.865  0.1704E+01  0.3858E+02
  15.875  0.1703E+01  0.3860E+02
  15.885  0.1703E+01  0.3862E+02
  15.895  0.1703E+01  0.3864E+02
  15.905  0.1703E+01  0.3865E+02
  15.915  0.1703E+01  0.3867E+02
  15.925  0.1703E+01  0.3869E+02
  15.935  0.1703E+01  0.3870E+02
  15.945  0.1703E+01  0.3872E+02
  15.955  0.1704E+01  0.3874E+02
  15.965  0.1704E+01  0.3875E+02
  15.975  0.1705E+01  0.3877E+02
  15.985  0.1706E+01  0.3879E+02
  15.995  0.1706E+01  0.3881E+02
  16.005  0.1707E+01  0.3882E+02
  16.015  0.1708E+01  0.3884E+02
  16.025  0.1710E+01  0.3886E+02
  16.035  0.1711E+01  0.3887E+02
  16.045  0.1712E+01  0.3889E+02
  16.055  0.1714E+01  0.3891E+02
  16.065  0.1715E+01  0.3893E+02
  16.075  0.1717E+01  0.3894E+02
  16.085  0.1718E+01  0.3896E+02
  16.095  0.1720E+01  0.3898E+02
  16.105  0.1722E+01  0.3899E+02
  16.115  0.1724E+01  0.3901E+02
  16.125  0.1726E+01  0.3903E+02
  16.135  0.1728E+01  0.3905E+02
  16.145  0.1730E+01  0.3906E+02
  16.155  0.1733E+01  0.3908E+02
  16.165  0.1735E+01  0.3910E+02
  16.175  0.1738E+01  0.3912E+02
  16.185  0.1740E+01  0.3913E+02
  16.195  0.1743E+01  0.3915E+02
  16.205  0.1745E+01  0.3917E+02
  16.215  0.1748E+01  0.3919E+02
  16.225  0.1751E+01  0.3920E+02
  16.235  0.1753E+01  0.3922E+02
  16.245  0.1756E+01  0.3924E+02
  16.255  0.1759E+01  0.3926E+02
  16.265  0.1762E+01  0.3927E+02
  16.275  0.1765E+01  0.3929E+02
  16.285  0.1768E+01  0.3931E+02
  16.295  0.1771E+01  0.3933E+02
  16.305  0.1774E+01  0.3934E+02
  16.315  0.1777E+01  0.3936E+02
  16.325  0.1780E+01  0.3938E+02
  16.335  0.1783E+01  0.3940E+02
  16.345  0.1786E+01  0.3941E+02
  16.355  0.1789E+01  0.3943E+02
  16.365  0.1792E+01  0.3945E+02
  16.375  0.1795E+01  0.3947E+02
  16.385  0.1798E+01  0.3949E+02
  16.395  0.1801E+01  0.3950E+02
  16.405  0.1804E+01  0.3952E+02
  16.415  0.1807E+01  0.3954E+02
  16.425  0.1810E+01  0.3956E+02
  16.435  0.1813E+01  0.3958E+02
  16.445  0.1816E+01  0.3960E+02
  16.455  0.1819E+01  0.3961E+02
  16.465  0.1822E+01  0.3963E+02
  16.475  0.1825E+01  0.3965E+02
  16.485  0.1827E+01  0.3967E+02
  16.495  0.1830E+01  0.3969E+02
  16.505  0.1833E+01  0.3970E+02
  16.515  0.1835E+01  0.3972E+02
  16.525  0.1838E+01  0.3974E+02
  16.535  0.1840E+01  0.3976E+02
  16.545  0.1843E+01  0.3978E+02
  16.555  0.1845E+01  0.3980E+02
  16.565  0.1848E+01  0.3982E+02
  16.575  0.1850E+01  0.3983E+02
  16.585  0.1852E+01  0.3985E+02
  16.595  0.1855E+01  0.3987E+02
  16.605  0.1857E+01  0.3989E+02
  16.615  0.1859E+01  0.3991E+02
  16.625  0.1861E+01  0.3993E+02
  16.635  0.1863E+01  0.3995E+02
  16.645  0.1865E+01  0.3996E+02
  16.655  0.1867E+01  0.3998E+02
  16.665  0.1869E+01  0.4000E+02
  16.675  0.1870E+01  0.4002E+02
  16.685  0.1872E+01  0.4004E+02
  16.695  0.1874E+01  0.4006E+02
  16.705  0.1875E+01  0.4008E+02
  16.715  0.1877E+01  0.4009E+02
  16.725  0.1878E+01  0.4011E+02
  16.735  0.1879E+01  0.4013E+02
  16.745  0.1881E+01  0.4015E+02
  16.755  0.1882E+01  0.4017E+02
  16.765  0.1883E+01  0.4019E+02
  16.775  0.1885E+01  0.4021E+02
  16.785  0.1886E+01  0.4023E+02
  16.795  0.1887E+01  0.4025E+02
  16.805  0.1888E+01  0.4026E+02
  16.815  0.1889E+01  0.4028E+02
  16.825  0.1890E+01  0.4030E+02
  16.835  0.1891E+01  0.4032E+02
  16.845  0.1892E+01  0.4034E+02
  16.855  0.1893E+01  0.4036E+02
  16.865  0.1893E+01  0.4038E+02
  16.875  0.1894E+01  0.4040E+02
  16.885  0.1895E+01  0.4042E+02
  16.895  0.1896E+01  0.4043E+02
  16.905  0.1897E+01  0.4045E+02
  16.915  0.1898E+01  0.4047E+02
  16.925  0.1898E+01  0.4049E+02
  16.935  0.1899E+01  0.4051E+02
  16.945  0.1900E+01  0.4053E+02
  16.955  0.1901E+01  0.4055E+02
  16.965  0.1901E+01  0.4057E+02
  16.975  0.1902E+01  0.4059E+02
  16.985  0.1903E+01  0.4061E+02
  16.995  0.1904E+01  0.4062E+02
  17.005  0.1905E+01  0.4064E+02
  17.015  0.1905E+01  0.4066E+02
  17.025  0.1906E+01  0.4068E+02
  17.035  0.1907E+01  0.4070E+02
  17.045  0.1908E+01  0.4072E+02
  17.055  0.1909E+01  0.4074E+02
  17.065  0.1910E+01  0.4076E+02
  17.075  0.1911E+01  0.4078E+02
  17.085  0.1912E+01  0.4080E+02
  17.095  0.1913E+01  0.4082E+02
  17.105  0.1914E+01  0.4083E+02
  17.115  0.1916E+01  0.4085E+02
  17.125  0.1917E+01  0.4087E+02
  17.135  0.1918E+01  0.4089E+02
  17.145  0.1920E+01  0.4091E+02
  17.155  0.1921E+01  0.4093E+02
  17.165  0.1923E+01  0.4095E+02
  17.175  0.1924E+01  0.4097E+02
  17.185  0.1926E+01  0.4099E+02
  17.195  0.1927E+01  0.4101E+02
  17.205  0.1929E+01  0.4103E+02
  17.215  0.1931E+01  0.4105E+02
  17.225  0.1933E+01  0.4107E+02
  17.235  0.1935E+01  0.4108E+02
  17.245  0.1937E+01  0.4110E+02
  17.255  0.1939E+01  0.4112E+02
  17.265  0.1941E+01  0.4114E+02
  17.275  0.1943E+01  0.4116E+02
  17.285  0.1945E+01  0.4118E+02
  17.295  0.1947E+01  0.4120E+02
  17.305  0.1949E+01  0.4122E+02
  17.315  0.1952E+01  0.4124E+02
  17.325  0.1954E+01  0.4126E+02
  17.335  0.1956E+01  0.4128E+02
  17.345  0.1959E+01  0.4130E+02
  17.355  0.1961E+01  0.4132E+02
  17.365  0.1964E+01  0.4134E+02
  17.375  0.1966E+01  0.4136E+02
  17.385  0.1969E+01  0.4138E+02
  17.395  0.1971E+01  0.4140E+02
  17.405  0.1974E+01  0.4142E+02
  17.415  0.1976E+01  0.4144E+02
  17.425  0.1979E+01  0.4146E+02
  17.435  0.1981E+01  0.4148E+02
  17.445  0.1984E+01  0.4150E+02
  17.455  0.1986E+01  0.4152E+02
  17.465  0.1989E+01  0.4154E+02
  17.475  0.1991E+01  0.4156E+02
  17.485  0.1993E+01  0.4158E+02
  17.495  0.1996E+01  0.4160E+02
  17.505  0.1998E+01  0.4162E+02
  17.515  0.2000E+01  0.4164E+02
  17.525  0.2002E+01  0.4166E+02
  17.535  0.2005E+01  0.4168E+02
  17.545  0.2007E+01  0.4170E+02
  17.555  0.2009E+01  0.4172E+02
  17.565  0.2011E+01  0.4174E+02
  17.575  0.2012E+01  0.4176E+02
  17.585  0.2014E+01  0.4178E+02
  17.595  0.2016E+01  0.4180E+02
  17.605  0.2017E+01  0.4182E+02
  17.615  0.2019E+01  0.4184E+02
  17.625  0.2020E+01  0.4186E+02
  17.635  0.2021E+01  0.4188E+02
  17.645  0.2022E+01  0.4190E+02
  17.655  0.2023E+01  0.4192E+02
  17.665  0.2024E+01  0.4194E+02
  17.675  0.2025E+01  0.4196E+02
  17.685  0.2025E+01  0.4198E+02
  17.695  0.2025E+01  0.4200E+02
  17.705  0.2026E+01  0.4202E+02
  17.715  0.2026E+01  0.4204E+02
  17.725  0.2026E+01  0.4206E+02
  17.735  0.2026E+01  0.4208E+02
  17.745  0.2025E+01  0.4210E+02
  17.755  0.2025E+01  0.4212E+02
  17.765  0.2024E+01  0.4214E+02
  17.775  0.2023E+01  0.4216E+02
  17.785  0.2022E+01  0.4218E+02
  17.795  0.2021E+01  0.4220E+02
  17.805  0.2020E+01  0.4222E+02
  17.815  0.2019E+01  0.4224E+02
  17.825  0.2017E+01  0.4226E+02
  17.835  0.2016E+01  0.4228E+02
  17.845  0.2014E+01  0.4230E+02
  17.855  0.2012E+01  0.4232E+02
  17.865  0.2010E+01  0.4234E+02
  17.875  0.2008E+01  0.4236E+02
  17.885  0.2005E+01  0.4238E+02
  17.895  0.2003E+01  0.4240E+02
  17.905  0.2000E+01  0.4242E+02
  17.915  0.1998E+01  0.4244E+02
  17.925  0.1995E+01  0.4246E+02
  17.935  0.1992E+01  0.4248E+02
  17.945  0.1989E+01  0.4250E+02
  17.955  0.1986E+01  0.4252E+02
  17.965  0.1983E+01  0.4254E+02
  17.975  0.1980E+01  0.4256E+02
  17.985  0.1976E+01  0.4258E+02
  17.995  0.1973E+01  0.4260E+02
  18.005  0.1970E+01  0.4262E+02
  18.015  0.1966E+01  0.4264E+02
  18.025  0.1963E+01  0.4266E+02
  18.035  0.1959E+01  0.4268E+02
  18.045  0.1956E+01  0.4270E+02
  18.055  0.1952E+01  0.4272E+02
  18.065  0.1948E+01  0.4274E+02
  18.075  0.1945E+01  0.4276E+02
  18.085  0.1941E+01  0.4278E+02
  18.095  0.1937E+01  0.4280E+02
  18.105  0.1934E+01  0.4282E+02
  18.115  0.1930E+01  0.4284E+02
  18.125  0.1926E+01  0.4285E+02
  18.135  0.1923E+01  0.4287E+02
  18.145  0.1919E+01  0.4289E+02
  18.155  0.1916E+01  0.4291E+02
  18.165  0.1912E+01  0.4293E+02
  18.175  0.1909E+01  0.4295E+02
  18.185  0.1905E+01  0.4297E+02
  18.195  0.1902E+01  0.4299E+02
  18.205  0.1899E+01  0.4301E+02
  18.215  0.1895E+01  0.4303E+02
  18.225  0.1892E+01  0.4305E+02
  18.235  0.1889E+01  0.4306E+02
  18.245  0.1886E+01  0.4308E+02
  18.255  0.1883E+01  0.4310E+02
  18.265  0.1880E+01  0.4312E+02
  18.275  0.1877E+01  0.4314E+02
  18.285  0.1874E+01  0.4316E+02
  18.295  0.1872E+01  0.4318E+02
  18.305  0.1869E+01  0.4320E+02
  18.315  0.1867E+01  0.4321E+02
  18.325  0.1864E+01  0.4323E+02
  18.335  0.1862E+01  0.4325E+02
  18.345  0.1859E+01  0.4327E+02
  18.355  0.1857E+01  0.4329E+02
  18.365  0.1855E+01  0.4331E+02
  18.375  0.1853E+01  0.4333E+02
  18.385  0.1851E+01  0.4334E+02
  18.395  0.1849E+01  0.4336E+02
  18.405  0.1847E+01  0.4338E+02
  18.415  0.1845E+01  0.4340E+02
  18.425  0.1843E+01  0.4342E+02
  18.435  0.1842E+01  0.4344E+02
  18.445  0.1840E+01  0.4345E+02
  18.455  0.1838E+01  0.4347E+02
  18.465  0.1837E+01  0.4349E+02
  18.475  0.1835E+01  0.4351E+02
  18.485  0.1834E+01  0.4353E+02
  18.495  0.1832E+01  0.4355E+02
  18.505  0.1831E+01  0.4356E+02
  18.515  0.1829E+01  0.4358E+02
  18.525  0.1828E+01  0.4360E+02
  18.535  0.1826E+01  0.4362E+02
  18.545  0.1825E+01  0.4364E+02
  18.555  0.1824E+01  0.4366E+02
  18.565  0.1822E+01  0.4367E+02
  18.575  0.1821E+01  0.4369E+02
  18.585  0.1819E+01  0.4371E+02
  18.595  0.1818E+01  0.4373E+02
  18.605  0.1816E+01  0.4375E+02
  18.615  0.1815E+01  0.4377E+02
  18.625  0.1813E+01  0.4378E+02
  18.635  0.1811E+01  0.4380E+02
  18.645  0.1810E+01  0.4382E+02
  18.655  0.1808E+01  0.4384E+02
  18.665  0.1806E+01  0.4386E+02
  18.675  0.1804E+01  0.4387E+02
  18.685  0.1802E+01  0.4389E+02
  18.695  0.1800E+01  0.4391E+02
  18.705  0.1798E+01  0.4393E+02
  18.715  0.1796E+01  0.4395E+02
  18.725  0.1794E+01  0.4396E+02
  18.735  0.1791E+01  0.4398E+02
  18.745  0.1789E+01  0.4400E+02
  18.755  0.1786E+01  0.4402E+02
  18.765  0.1783E+01  0.4404E+02
  18.775  0.1781E+01  0.4405E+02
  18.785  0.1778E+01  0.4407E+02
  18.795  0.1775E+01  0.4409E+02
  18.805  0.1772E+01  0.4411E+02
  18.815  0.1768E+01  0.4412E+02
  18.825  0.1765E+01  0.4414E+02
  18.835  0.1762E+01  0.4416E+02
  18.845  0.1758E+01  0.4418E+02
  18.855  0.1754E+01  0.4419E+02
  18.865  0.1751E+01  0.4421E+02
  18.875  0.1747E+01  0.4423E+02
  18.885  0.1743E+01  0.4425E+02
  18.895  0.1738E+01  0.4426E+02
  18.905  0.1734E+01  0.4428E+02
  18.915  0.1730E+01  0.4430E+02
  18.925  0.1725E+01  0.4432E+02
  18.935  0.1721E+01  0.4433E+02
  18.945  0.1716E+01  0.4435E+02
  18.955  0.1711E+01  0.4437E+02
  18.965  0.1706E+01  0.4438E+02
  18.975  0.1701E+01  0.4440E+02
  18.985  0.1696E+01  0.4442E+02
  18.995  0.1691E+01  0.4444E+02
  19.005  0.1685E+01  0.4445E+02
  19.015  0.1680E+01  0.4447E+02
  19.025  0.1674E+01  0.4449E+02
  19.035  0.1669E+01  0.4450E+02
  19.045  0.1663E+01  0.4452E+02
  19.055  0.1657E+01  0.4454E+02
  19.065  0.1652E+01  0.4455E+02
  19.075  0.1646E+01  0.4457E+02
  19.085  0.1640E+01  0.4459E+02
  19.095  0.1634E+01  0.4460E+02
  19.105  0.1628E+01  0.4462E+02
  19.115  0.1622E+01  0.4463E+02
  19.125  0.1616E+01  0.4465E+02
  19.135  0.1610E+01  0.4467E+02
  19.145  0.1604E+01  0.4468E+02
  19.155  0.1598E+01  0.4470E+02
  19.165  0.1592E+01  0.4471E+02
  19.175  0.1586E+01  0.4473E+02
  19.185  0.1580E+01  0.4475E+02
  19.195  0.1574E+01  0.4476E+02
  19.205  0.1568E+01  0.4478E+02
  19.215  0.1562E+01  0.4479E+02
  19.225  0.1556E+01  0.4481E+02
  19.235  0.1550E+01  0.4482E+02
  19.245  0.1545E+01  0.4484E+02
  19.255  0.1539E+01  0.4485E+02
  19.265  0.1533E+01  0.4487E+02
  19.275  0.1528E+01  0.4489E+02
  19.285  0.1523E+01  0.4490E+02
  19.295  0.1517E+01  0.4492E+02
  19.305  0.1512E+01  0.4493E+02
  19.315  0.1507E+01  0.4495E+02
  19.325  0.1502E+01  0.4496E+02
  19.335  0.1497E+01  0.4498E+02
  19.345  0.1492E+01  0.4499E+02
  19.355  0.1488E+01  0.4501E+02
  19.365  0.1484E+01  0.4502E+02
  19.375  0.1479E+01  0.4504E+02
  19.385  0.1475E+01  0.4505E+02
  19.395  0.1471E+01  0.4506E+02
  19.405  0.1468E+01  0.4508E+02
  19.415  0.1464E+01  0.4509E+02
  19.425  0.1461E+01  0.4511E+02
  19.435  0.1457E+01  0.4512E+02
  19.445  0.1454E+01  0.4514E+02
  19.455  0.1452E+01  0.4515E+02
  19.465  0.1449E+01  0.4517E+02
  19.475  0.1447E+01  0.4518E+02
  19.485  0.1444E+01  0.4520E+02
  19.495  0.1443E+01  0.4521E+02
  19.505  0.1441E+01  0.4522E+02
  19.515  0.1439E+01  0.4524E+02
  19.525  0.1438E+01  0.4525E+02
  19.535  0.1437E+01  0.4527E+02
  19.545  0.1436E+01  0.4528E+02
  19.555  0.1436E+01  0.4530E+02
  19.565  0.1435E+01  0.4531E+02
  19.575  0.1435E+01  0.4533E+02
  19.585  0.1435E+01  0.4534E+02
  19.595  0.1436E+01  0.4535E+02
  19.605  0.1436E+01  0.4537E+02
  19.615  0.1437E+01  0.4538E+02
  19.625  0.1438E+01  0.4540E+02
  19.635  0.1439E+01  0.4541E+02
  19.645  0.1441E+01  0.4543E+02
  19.655  0.1443E+01  0.4544E+02
  19.665  0.1445E+01  0.4545E+02
  19.675  0.1447E+01  0.4547E+02
  19.685  0.1449E+01  0.4548E+02
  19.695  0.1452E+01  0.4550E+02
  19.705  0.1455E+01  0.4551E+02
  19.715  0.1458E+01  0.4553E+02
  19.725  0.1461E+01  0.4554E+02
  19.735  0.1465E+01  0.4556E+02
  19.745  0.1469E+01  0.4557E+02
  19.755  0.1473E+01  0.4559E+02
  19.765  0.1477E+01  0.4560E+02
  19.775  0.1481E+01  0.4562E+02
  19.785  0.1485E+01  0.4563E+02
  19.795  0.1490E+01  0.4565E+02
  19.805  0.1495E+01  0.4566E+02
  19.815  0.1500E+01  0.4568E+02
  19.825  0.1505E+01  0.4569E+02
  19.835  0.1510E+01  0.4571E+02
  19.845  0.1516E+01  0.4572E+02
  19.855  0.1521E+01  0.4574E+02
  19.865  0.1527E+01  0.4575E+02
  19.875  0.1532E+01  0.4577E+02
  19.885  0.1538E+01  0.4578E+02
  19.895  0.1544E+01  0.4580E+02
  19.905  0.1550E+01  0.4581E+02
  19.915  0.1556E+01  0.4583E+02
  19.925  0.1562E+01  0.4584E+02
  19.935  0.1568E+01  0.4586E+02
  19.945  0.1574E+01  0.4588E+02
  19.955  0.1580E+01  0.4589E+02
  19.965  0.1587E+01  0.4591E+02
  19.975  0.1593E+01  0.4592E+02
  19.985  0.1599E+01  0.4594E+02
  19.995  0.1605E+01  0.4595E+02
  20.005  0.1611E+01  0.4597E+02
  20.015  0.1617E+01  0.4599E+02
  20.025  0.1623E+01  0.4600E+02
  20.035  0.1629E+01  0.4602E+02
  20.045  0.1635E+01  0.4604E+02
  20.055  0.1641E+01  0.4605E+02
  20.065  0.1646E+01  0.4607E+02
  20.075  0.1652E+01  0.4609E+02
  20.085  0.1657E+01  0.4610E+02
  20.095  0.1663E+01  0.4612E+02
  20.105  0.1668E+01  0.4614E+02
  20.115  0.1673E+01  0.4615E+02
  20.125  0.1677E+01  0.4617E+02
  20.135  0.1682E+01  0.4619E+02
  20.145  0.1687E+01  0.4620E+02
  20.155  0.1691E+01  0.4622E+02
  20.165  0.1695E+01  0.4624E+02
  20.175  0.1699E+01  0.4625E+02
  20.185  0.1702E+01  0.4627E+02
  20.195  0.1706E+01  0.4629E+02
  20.205  0.1709E+01  0.4630E+02
  20.215  0.1712E+01  0.4632E+02
  20.225  0.1715E+01  0.4634E+02
  20.235  0.1717E+01  0.4636E+02
  20.245  0.1719E+01  0.4637E+02
  20.255  0.1721E+01  0.4639E+02
  20.265  0.1723E+01  0.4641E+02
  20.275  0.1724E+01  0.4642E+02
  20.285  0.1725E+01  0.4644E+02
  20.295  0.1726E+01  0.4646E+02
  20.305  0.1726E+01  0.4648E+02
  20.315  0.1726E+01  0.4649E+02
  20.325  0.1726E+01  0.4651E+02
  20.335  0.1725E+01  0.4653E+02
  20.345  0.1725E+01  0.4655E+02
  20.355  0.1723E+01  0.4656E+02
  20.365  0.1722E+01  0.4658E+02
  20.375  0.1720E+01  0.4660E+02
  20.385  0.1718E+01  0.4661E+02
  20.395  0.1715E+01  0.4663E+02
  20.405  0.1713E+01  0.4665E+02
  20.415  0.1709E+01  0.4667E+02
  20.425  0.1706E+01  0.4668E+02
  20.435  0.1702E+01  0.4670E+02
  20.445  0.1698E+01  0.4672E+02
  20.455  0.1694E+01  0.4673E+02
  20.465  0.1689E+01  0.4675E+02
  20.475  0.1684E+01  0.4677E+02
  20.485  0.1678E+01  0.4678E+02
  20.495  0.1672E+01  0.4680E+02
  20.505  0.1666E+01  0.4682E+02
  20.515  0.1660E+01  0.4683E+02
  20.525  0.1653E+01  0.4685E+02
  20.535  0.1646E+01  0.4687E+02
  20.545  0.1639E+01  0.4688E+02
  20.555  0.1631E+01  0.4690E+02
  20.565  0.1623E+01  0.4692E+02
  20.575  0.1615E+01  0.4693E+02
  20.585  0.1606E+01  0.4695E+02
  20.595  0.1597E+01  0.4696E+02
  20.605  0.1588E+01  0.4698E+02
  20.615  0.1579E+01  0.4700E+02
  20.625  0.1569E+01  0.4701E+02
  20.635  0.1559E+01  0.4703E+02
  20.645  0.1549E+01  0.4704E+02
  20.655  0.1538E+01  0.4706E+02
  20.665  0.1528E+01  0.4707E+02
  20.675  0.1517E+01  0.4709E+02
  20.685  0.1506E+01  0.4710E+02
  20.695  0.1494E+01  0.4712E+02
  20.705  0.1483E+01  0.4713E+02
  20.715  0.1471E+01  0.4715E+02
  20.725  0.1459E+01  0.4716E+02
  20.735  0.1446E+01  0.4718E+02
  20.745  0.1434E+01  0.4719E+02
  20.755  0.1421E+01  0.4721E+02
  20.765  0.1408E+01  0.4722E+02
  20.775  0.1395E+01  0.4723E+02
  20.785  0.1382E+01  0.4725E+02
  20.795  0.1369E+01  0.4726E+02
  20.805  0.1356E+01  0.4727E+02
  20.815  0.1342E+01  0.4729E+02
  20.825  0.1328E+01  0.4730E+02
  20.835  0.1314E+01  0.4731E+02
  20.845  0.1300E+01  0.4733E+02
  20.855  0.1286E+01  0.4734E+02
  20.865  0.1272E+01  0.4735E+02
  20.875  0.1258E+01  0.4737E+02
  20.885  0.1244E+01  0.4738E+02
  20.895  0.1229E+01  0.4739E+02
  20.905  0.1215E+01  0.4740E+02
  20.915  0.1200E+01  0.4741E+02
  20.925  0.1185E+01  0.4743E+02
  20.935  0.1171E+01  0.4744E+02
  20.945  0.1156E+01  0.4745E+02
  20.955  0.1141E+01  0.4746E+02
  20.965  0.1126E+01  0.4747E+02
  20.975  0.1111E+01  0.4748E+02
  20.985  0.1096E+01  0.4749E+02
  20.995  0.1082E+01  0.4751E+02
  21.005  0.1067E+01  0.4752E+02
  21.015  0.1052E+01  0.4753E+02
  21.025  0.1037E+01  0.4754E+02
  21.035  0.1022E+01  0.4755E+02
  21.045  0.1007E+01  0.4756E+02
  21.055  0.9922E+00  0.4757E+02
  21.065  0.9773E+00  0.4758E+02
  21.075  0.9625E+00  0.4759E+02
  21.085  0.9477E+00  0.4760E+02
  21.095  0.9330E+00  0.4761E+02
  21.105  0.9183E+00  0.4761E+02
  21.115  0.9036E+00  0.4762E+02
  21.125  0.8891E+00  0.4763E+02
  21.135  0.8745E+00  0.4764E+02
  21.145  0.8601E+00  0.4765E+02
  21.155  0.8457E+00  0.4766E+02
  21.165  0.8314E+00  0.4767E+02
  21.175  0.8171E+00  0.4767E+02
  21.185  0.8029E+00  0.4768E+02
  21.195  0.7889E+00  0.4769E+02
  21.205  0.7749E+00  0.4770E+02
  21.215  0.7610E+00  0.4771E+02
  21.225  0.7472E+00  0.4771E+02
  21.235  0.7335E+00  0.4772E+02
  21.245  0.7199E+00  0.4773E+02
  21.255  0.7064E+00  0.4774E+02
  21.265  0.6930E+00  0.4774E+02
  21.275  0.6797E+00  0.4775E+02
  21.285  0.6666E+00  0.4776E+02
  21.295  0.6535E+00  0.4776E+02
  21.305  0.6406E+00  0.4777E+02
  21.315  0.6278E+00  0.4777E+02
  21.325  0.6152E+00  0.4778E+02
  21.335  0.6026E+00  0.4779E+02
  21.345  0.5902E+00  0.4779E+02
  21.355  0.5779E+00  0.4780E+02
  21.365  0.5658E+00  0.4780E+02
  21.375  0.5538E+00  0.4781E+02
  21.385  0.5419E+00  0.4782E+02
  21.395  0.5302E+00  0.4782E+02
  21.405  0.5186E+00  0.4783E+02
  21.415  0.5072E+00  0.4783E+02
  21.425  0.4958E+00  0.4784E+02
  21.435  0.4847E+00  0.4784E+02
  21.445  0.4737E+00  0.4785E+02
  21.455  0.4628E+00  0.4785E+02
  21.465  0.4521E+00  0.4785E+02
  21.475  0.4415E+00  0.4786E+02
  21.485  0.4311E+00  0.4786E+02
  21.495  0.4209E+00  0.4787E+02
  21.505  0.4107E+00  0.4787E+02
  21.515  0.4008E+00  0.4788E+02
  21.525  0.3910E+00  0.4788E+02
  21.535  0.3813E+00  0.4788E+02
  21.545  0.3718E+00  0.4789E+02
  21.555  0.3625E+00  0.4789E+02
  21.565  0.3533E+00  0.4789E+02
  21.575  0.3442E+00  0.4790E+02
  21.585  0.3353E+00  0.4790E+02
  21.595  0.3266E+00  0.4790E+02
  21.605  0.3180E+00  0.4791E+02
  21.615  0.3096E+00  0.4791E+02
  21.625  0.3013E+00  0.4791E+02
  21.635  0.2932E+00  0.4792E+02
  21.645  0.2852E+00  0.4792E+02
  21.655  0.2774E+00  0.4792E+02
  21.665  0.2697E+00  0.4792E+02
  21.675  0.2622E+00  0.4793E+02
  21.685  0.2548E+00  0.4793E+02
  21.695  0.2475E+00  0.4793E+02
  21.705  0.2404E+00  0.4793E+02
  21.715  0.2335E+00  0.4794E+02
  21.725  0.2267E+00  0.4794E+02
  21.735  0.2200E+00  0.4794E+02
  21.745  0.2135E+00  0.4794E+02
  21.755  0.2071E+00  0.4795E+02
  21.765  0.2009E+00  0.4795E+02
  21.775  0.1948E+00  0.4795E+02
  21.785  0.1888E+00  0.4795E+02
  21.795  0.1830E+00  0.4795E+02
  21.805  0.1773E+00  0.4796E+02
  21.815  0.1717E+00  0.4796E+02
  21.825  0.1663E+00  0.4796E+02
  21.835  0.1610E+00  0.4796E+02
  21.845  0.1558E+00  0.4796E+02
  21.855  0.1507E+00  0.4796E+02
  21.865  0.1458E+00  0.4796E+02
  21.875  0.1410E+00  0.4797E+02
  21.885  0.1363E+00  0.4797E+02
  21.895  0.1317E+00  0.4797E+02
  21.905  0.1272E+00  0.4797E+02
  21.915  0.1229E+00  0.4797E+02
  21.925  0.1187E+00  0.4797E+02
  21.935  0.1145E+00  0.4797E+02
  21.945  0.1105E+00  0.4797E+02
  21.955  0.1066E+00  0.4798E+02
  21.965  0.1028E+00  0.4798E+02
  21.975  0.9914E-01  0.4798E+02
  21.985  0.9555E-01  0.4798E+02
  21.995  0.9206E-01  0.4798E+02
  22.005  0.8867E-01  0.4798E+02
  22.015  0.8538E-01  0.4798E+02
  22.025  0.8219E-01  0.4798E+02
  22.035  0.7908E-01  0.4798E+02
  22.045  0.7607E-01  0.4798E+02
  22.055  0.7315E-01  0.4798E+02
  22.065  0.7032E-01  0.4799E+02
  22.075  0.6758E-01  0.4799E+02
  22.085  0.6492E-01  0.4799E+02
  22.095  0.6234E-01  0.4799E+02
  22.105  0.5984E-01  0.4799E+02
  22.115  0.5743E-01  0.4799E+02
  22.125  0.5509E-01  0.4799E+02
  22.135  0.5283E-01  0.4799E+02
  22.145  0.5064E-01  0.4799E+02
  22.155  0.4852E-01  0.4799E+02
  22.165  0.4648E-01  0.4799E+02
  22.175  0.4450E-01  0.4799E+02
  22.185  0.4259E-01  0.4799E+02
  22.195  0.4075E-01  0.4799E+02
  22.205  0.3898E-01  0.4799E+02
  22.215  0.3726E-01  0.4799E+02
  22.225  0.3561E-01  0.4799E+02
  22.235  0.3402E-01  0.4799E+02
  22.245  0.3248E-01  0.4799E+02
  22.255  0.3100E-01  0.4799E+02
  22.265  0.2958E-01  0.4799E+02
  22.275  0.2821E-01  0.4799E+02
  22.285  0.2689E-01  0.4800E+02
  22.295  0.2562E-01  0.4800E+02
  22.305  0.2441E-01  0.4800E+02
  22.315  0.2324E-01  0.4800E+02
  22.325  0.2211E-01  0.4800E+02
  22.335  0.2103E-01  0.4800E+02
  22.345  0.2000E-01  0.4800E+02
  22.355  0.1901E-01  0.4800E+02
  22.365  0.1806E-01  0.4800E+02
  22.375  0.1715E-01  0.4800E+02
  22.385  0.1627E-01  0.4800E+02
  22.395  0.1544E-01  0.4800E+02
  22.405  0.1464E-01  0.4800E+02
  22.415  0.1387E-01  0.4800E+02
  22.425  0.1314E-01  0.4800E+02
  22.435  0.1244E-01  0.4800E+02
  22.445  0.1178E-01  0.4800E+02
  22.455  0.1114E-01  0.4800E+02
  22.465  0.1053E-01  0.4800E+02
  22.475  0.9956E-02  0.4800E+02
  22.485  0.9404E-02  0.4800E+02
  22.495  0.8878E-02  0.4800E+02
  22.505  0.8378E-02  0.4800E+02
  22.515  0.7902E-02  0.4800E+02
  22.525  0.7449E-02  0.4800E+02
  22.535  0.7019E-02  0.4800E+02
  22.545  0.6610E-02  0.4800E+02
  22.555  0.6222E-02  0.4800E+02
  22.565  0.5853E-02  0.4800E+02
  22.575  0.5503E-02  0.4800E+02
  22.585  0.5172E-02  0.4800E+02
  22.595  0.4858E-02  0.4800E+02
  22.605  0.4561E-02  0.4800E+02
  22.615  0.4279E-02  0.4800E+02
  22.625  0.4013E-02  0.4800E+02
  22.635  0.3761E-02  0.4800E+02
  22.645  0.3524E-02  0.4800E+02
  22.655  0.3299E-02  0.4800E+02
  22.665  0.3087E-02  0.4800E+02
  22.675  0.2887E-02  0.4800E+02
  22.685  0.2699E-02  0.4800E+02
  22.695  0.2521E-02  0.4800E+02
  22.705  0.2354E-02  0.4800E+02
  22.715  0.2197E-02  0.4800E+02
  22.725  0.2049E-02  0.4800E+02
  22.735  0.1910E-02  0.4800E+02
  22.745  0.1779E-02  0.4800E+02
  22.755  0.1657E-02  0.4800E+02
  22.765  0.1541E-02  0.4800E+02
  22.775  0.1434E-02  0.4800E+02
  22.785  0.1333E-02  0.4800E+02
  22.795  0.1238E-02  0.4800E+02
  22.805  0.1149E-02  0.4800E+02
  22.815  0.1066E-02  0.4800E+02
  22.825  0.9888E-03  0.4800E+02
  22.835  0.9164E-03  0.4800E+02
  22.845  0.8489E-03  0.4800E+02
  22.855  0.7858E-03  0.4800E+02
  22.865  0.7270E-03  0.4800E+02
  22.875  0.6722E-03  0.4800E+02
  22.885  0.6211E-03  0.4800E+02
  22.895  0.5736E-03  0.4800E+02
  22.905  0.5294E-03  0.4800E+02
  22.915  0.4884E-03  0.4800E+02
  22.925  0.4502E-03  0.4800E+02
  22.935  0.4148E-03  0.4800E+02
  22.945  0.3819E-03  0.4800E+02
  22.955  0.3514E-03  0.4800E+02
  22.965  0.3232E-03  0.4800E+02
  22.975  0.2970E-03  0.4800E+02
  22.985  0.2728E-03  0.4800E+02
  22.995  0.2504E-03  0.4800E+02
  23.005  0.2298E-03  0.4800E+02
  23.015  0.2107E-03  0.4800E+02
  23.025  0.1930E-03  0.4800E+02
  23.035  0.1768E-03  0.4800E+02
  23.045  0.1618E-03  0.4800E+02
  23.055  0.1479E-03  0.4800E+02
  23.065  0.1352E-03  0.4800E+02
  23.075  0.1235E-03  0.4800E+02
  23.085  0.1128E-03  0.4800E+02
  23.095  0.1029E-03  0.4800E+02
  23.105  0.9379E-04  0.4800E+02
  23.115  0.8546E-04  0.4800E+02
  23.125  0.7782E-04  0.4800E+02
  23.135  0.7082E-04  0.4800E+02
  23.145  0.6441E-04  0.4800E+02
  23.155  0.5854E-04  0.4800E+02
  23.165  0.5318E-04  0.4800E+02
  23.175  0.4827E-04  0.4800E+02
  23.185  0.4379E-04  0.4800E+02
  23.195  0.3970E-04  0.4800E+02
  23.205  0.3597E-04  0.4800E+02
  23.215  0.3257E-04  0.4800E+02
  23.225  0.2947E-04  0.4800E+02
  23.235  0.2665E-04  0.4800E+02
  23.245  0.2409E-04  0.4800E+02
  23.255  0.2175E-04  0.4800E+02
  23.265  0.1964E-04  0.4800E+02
  23.275  0.1771E-04  0.4800E+02
  23.285  0.1597E-04  0.4800E+02
  23.295  0.1438E-04  0.4800E+02
  23.305  0.1295E-04  0.4800E+02
  23.315  0.1165E-04  0.4800E+02
  23.325  0.1047E-04  0.4800E+02
  23.335  0.9412E-05  0.4800E+02
  23.345  0.8452E-05  0.4800E+02
  23.355  0.7585E-05  0.4800E+02
  23.365  0.6802E-05  0.4800E+02
  23.375  0.6096E-05  0.4800E+02
  23.385  0.5460E-05  0.4800E+02
  23.395  0.4887E-05  0.4800E+02
  23.405  0.4372E-05  0.4800E+02
