#  E (eV)   dos(E)     Int dos(E) EFermi =    8.026 eV
 -15.425  0.4933E-03  0.4933E-05
 -15.415  0.5528E-03  0.1046E-04
 -15.405  0.6191E-03  0.1665E-04
 -15.395  0.6928E-03  0.2358E-04
 -15.385  0.7749E-03  0.3133E-04
 -15.375  0.8660E-03  0.3999E-04
 -15.365  0.9673E-03  0.4966E-04
 -15.355  0.1080E-02  0.6046E-04
 -15.345  0.1204E-02  0.7250E-04
 -15.335  0.1343E-02  0.8593E-04
 -15.325  0.1496E-02  0.1009E-03
 -15.315  0.1665E-02  0.1175E-03
 -15.305  0.1853E-02  0.1361E-03
 -15.295  0.2060E-02  0.1567E-03
 -15.285  0.2289E-02  0.1796E-03
 -15.275  0.2542E-02  0.2050E-03
 -15.265  0.2821E-02  0.2332E-03
 -15.255  0.3129E-02  0.2645E-03
 -15.245  0.3468E-02  0.2992E-03
 -15.235  0.3841E-02  0.3376E-03
 -15.225  0.4251E-02  0.3801E-03
 -15.215  0.4703E-02  0.4271E-03
 -15.205  0.5199E-02  0.4791E-03
 -15.195  0.5743E-02  0.5365E-03
 -15.185  0.6341E-02  0.6000E-03
 -15.175  0.6996E-02  0.6699E-03
 -15.165  0.7714E-02  0.7471E-03
 -15.155  0.8500E-02  0.8321E-03
 -15.145  0.9361E-02  0.9257E-03
 -15.135  0.1030E-01  0.1029E-02
 -15.125  0.1133E-01  0.1142E-02
 -15.115  0.1245E-01  0.1266E-02
 -15.105  0.1368E-01  0.1403E-02
 -15.095  0.1501E-01  0.1553E-02
 -15.085  0.1647E-01  0.1718E-02
 -15.075  0.1806E-01  0.1899E-02
 -15.065  0.1978E-01  0.2097E-02
 -15.055  0.2166E-01  0.2313E-02
 -15.045  0.2370E-01  0.2550E-02
 -15.035  0.2592E-01  0.2809E-02
 -15.025  0.2832E-01  0.3092E-02
 -15.015  0.3093E-01  0.3402E-02
 -15.005  0.3376E-01  0.3739E-02
 -14.995  0.3682E-01  0.4108E-02
 -14.985  0.4014E-01  0.4509E-02
 -14.975  0.4372E-01  0.4946E-02
 -14.965  0.4760E-01  0.5422E-02
 -14.955  0.5179E-01  0.5940E-02
 -14.945  0.5631E-01  0.6503E-02
 -14.935  0.6118E-01  0.7115E-02
 -14.925  0.6644E-01  0.7779E-02
 -14.915  0.7210E-01  0.8500E-02
 -14.905  0.7820E-01  0.9282E-02
 -14.895  0.8476E-01  0.1013E-01
 -14.885  0.9181E-01  0.1105E-01
 -14.875  0.9939E-01  0.1204E-01
 -14.865  0.1075E+00  0.1312E-01
 -14.855  0.1162E+00  0.1428E-01
 -14.845  0.1256E+00  0.1554E-01
 -14.835  0.1356E+00  0.1689E-01
 -14.825  0.1464E+00  0.1836E-01
 -14.815  0.1578E+00  0.1993E-01
 -14.805  0.1701E+00  0.2163E-01
 -14.795  0.1832E+00  0.2347E-01
 -14.785  0.1972E+00  0.2544E-01
 -14.775  0.2122E+00  0.2756E-01
 -14.765  0.2281E+00  0.2984E-01
 -14.755  0.2451E+00  0.3229E-01
 -14.745  0.2632E+00  0.3492E-01
 -14.735  0.2824E+00  0.3775E-01
 -14.725  0.3029E+00  0.4078E-01
 -14.715  0.3246E+00  0.4402E-01
 -14.705  0.3477E+00  0.4750E-01
 -14.695  0.3722E+00  0.5122E-01
 -14.685  0.3982E+00  0.5520E-01
 -14.675  0.4257E+00  0.5946E-01
 -14.665  0.4548E+00  0.6401E-01
 -14.655  0.4857E+00  0.6887E-01
 -14.645  0.5183E+00  0.7405E-01
 -14.635  0.5528E+00  0.7958E-01
 -14.625  0.5892E+00  0.8547E-01
 -14.615  0.6276E+00  0.9174E-01
 -14.605  0.6681E+00  0.9843E-01
 -14.595  0.7108E+00  0.1055E+00
 -14.585  0.7558E+00  0.1131E+00
 -14.575  0.8031E+00  0.1211E+00
 -14.565  0.8529E+00  0.1297E+00
 -14.555  0.9052E+00  0.1387E+00
 -14.545  0.9602E+00  0.1483E+00
 -14.535  0.1018E+01  0.1585E+00
 -14.525  0.1078E+01  0.1693E+00
 -14.515  0.1142E+01  0.1807E+00
 -14.505  0.1208E+01  0.1928E+00
 -14.495  0.1277E+01  0.2055E+00
 -14.485  0.1350E+01  0.2190E+00
 -14.475  0.1426E+01  0.2333E+00
 -14.465  0.1505E+01  0.2484E+00
 -14.455  0.1588E+01  0.2642E+00
 -14.445  0.1674E+01  0.2810E+00
 -14.435  0.1764E+01  0.2986E+00
 -14.425  0.1858E+01  0.3172E+00
 -14.415  0.1955E+01  0.3367E+00
 -14.405  0.2057E+01  0.3573E+00
 -14.395  0.2162E+01  0.3789E+00
 -14.385  0.2271E+01  0.4016E+00
 -14.375  0.2385E+01  0.4255E+00
 -14.365  0.2502E+01  0.4505E+00
 -14.355  0.2624E+01  0.4768E+00
 -14.345  0.2750E+01  0.5043E+00
 -14.335  0.2881E+01  0.5331E+00
 -14.325  0.3016E+01  0.5632E+00
 -14.315  0.3155E+01  0.5948E+00
 -14.305  0.3299E+01  0.6278E+00
 -14.295  0.3448E+01  0.6623E+00
 -14.285  0.3601E+01  0.6983E+00
 -14.275  0.3759E+01  0.7358E+00
 -14.265  0.3921E+01  0.7751E+00
 -14.255  0.4088E+01  0.8159E+00
 -14.245  0.4260E+01  0.8585E+00
 -14.235  0.4436E+01  0.9029E+00
 -14.225  0.4617E+01  0.9491E+00
 -14.215  0.4802E+01  0.9971E+00
 -14.205  0.4992E+01  0.1047E+01
 -14.195  0.5187E+01  0.1099E+01
 -14.185  0.5386E+01  0.1153E+01
 -14.175  0.5589E+01  0.1209E+01
 -14.165  0.5797E+01  0.1267E+01
 -14.155  0.6009E+01  0.1327E+01
 -14.145  0.6225E+01  0.1389E+01
 -14.135  0.6445E+01  0.1453E+01
 -14.125  0.6670E+01  0.1520E+01
 -14.115  0.6898E+01  0.1589E+01
 -14.105  0.7130E+01  0.1660E+01
 -14.095  0.7365E+01  0.1734E+01
 -14.085  0.7604E+01  0.1810E+01
 -14.075  0.7847E+01  0.1889E+01
 -14.065  0.8092E+01  0.1969E+01
 -14.055  0.8341E+01  0.2053E+01
 -14.045  0.8592E+01  0.2139E+01
 -14.035  0.8845E+01  0.2227E+01
 -14.025  0.9102E+01  0.2318E+01
 -14.015  0.9360E+01  0.2412E+01
 -14.005  0.9620E+01  0.2508E+01
 -13.995  0.9882E+01  0.2607E+01
 -13.985  0.1015E+02  0.2708E+01
 -13.975  0.1041E+02  0.2812E+01
 -13.965  0.1068E+02  0.2919E+01
 -13.955  0.1094E+02  0.3029E+01
 -13.945  0.1121E+02  0.3141E+01
 -13.935  0.1147E+02  0.3255E+01
 -13.925  0.1174E+02  0.3373E+01
 -13.915  0.1201E+02  0.3493E+01
 -13.905  0.1227E+02  0.3616E+01
 -13.895  0.1254E+02  0.3741E+01
 -13.885  0.1280E+02  0.3869E+01
 -13.875  0.1306E+02  0.3999E+01
 -13.865  0.1332E+02  0.4133E+01
 -13.855  0.1357E+02  0.4268E+01
 -13.845  0.1383E+02  0.4407E+01
 -13.835  0.1408E+02  0.4547E+01
 -13.825  0.1433E+02  0.4691E+01
 -13.815  0.1457E+02  0.4836E+01
 -13.805  0.1481E+02  0.4984E+01
 -13.795  0.1504E+02  0.5135E+01
 -13.785  0.1527E+02  0.5288E+01
 -13.775  0.1550E+02  0.5443E+01
 -13.765  0.1572E+02  0.5600E+01
 -13.755  0.1594E+02  0.5759E+01
 -13.745  0.1614E+02  0.5921E+01
 -13.735  0.1635E+02  0.6084E+01
 -13.725  0.1654E+02  0.6250E+01
 -13.715  0.1673E+02  0.6417E+01
 -13.705  0.1692E+02  0.6586E+01
 -13.695  0.1709E+02  0.6757E+01
 -13.685  0.1726E+02  0.6930E+01
 -13.675  0.1742E+02  0.7104E+01
 -13.665  0.1757E+02  0.7279E+01
 -13.655  0.1771E+02  0.7457E+01
 -13.645  0.1785E+02  0.7635E+01
 -13.635  0.1797E+02  0.7815E+01
 -13.625  0.1809E+02  0.7996E+01
 -13.615  0.1820E+02  0.8178E+01
 -13.605  0.1830E+02  0.8361E+01
 -13.595  0.1838E+02  0.8544E+01
 -13.585  0.1846E+02  0.8729E+01
 -13.575  0.1853E+02  0.8914E+01
 -13.565  0.1859E+02  0.9100E+01
 -13.555  0.1864E+02  0.9287E+01
 -13.545  0.1868E+02  0.9473E+01
 -13.535  0.1871E+02  0.9661E+01
 -13.525  0.1873E+02  0.9848E+01
 -13.515  0.1874E+02  0.1004E+02
 -13.505  0.1874E+02  0.1022E+02
 -13.495  0.1873E+02  0.1041E+02
 -13.485  0.1871E+02  0.1060E+02
 -13.475  0.1868E+02  0.1078E+02
 -13.465  0.1863E+02  0.1097E+02
 -13.455  0.1858E+02  0.1116E+02
 -13.445  0.1852E+02  0.1134E+02
 -13.435  0.1845E+02  0.1153E+02
 -13.425  0.1837E+02  0.1171E+02
 -13.415  0.1828E+02  0.1189E+02
 -13.405  0.1818E+02  0.1207E+02
 -13.395  0.1807E+02  0.1225E+02
 -13.385  0.1795E+02  0.1243E+02
 -13.375  0.1782E+02  0.1261E+02
 -13.365  0.1768E+02  0.1279E+02
 -13.355  0.1754E+02  0.1296E+02
 -13.345  0.1739E+02  0.1314E+02
 -13.335  0.1722E+02  0.1331E+02
 -13.325  0.1706E+02  0.1348E+02
 -13.315  0.1688E+02  0.1365E+02
 -13.305  0.1669E+02  0.1382E+02
 -13.295  0.1650E+02  0.1398E+02
 -13.285  0.1630E+02  0.1414E+02
 -13.275  0.1610E+02  0.1431E+02
 -13.265  0.1589E+02  0.1446E+02
 -13.255  0.1567E+02  0.1462E+02
 -13.245  0.1545E+02  0.1478E+02
 -13.235  0.1522E+02  0.1493E+02
 -13.225  0.1499E+02  0.1508E+02
 -13.215  0.1475E+02  0.1523E+02
 -13.205  0.1451E+02  0.1537E+02
 -13.195  0.1426E+02  0.1551E+02
 -13.185  0.1402E+02  0.1565E+02
 -13.175  0.1376E+02  0.1579E+02
 -13.165  0.1351E+02  0.1593E+02
 -13.155  0.1325E+02  0.1606E+02
 -13.145  0.1299E+02  0.1619E+02
 -13.135  0.1273E+02  0.1632E+02
 -13.125  0.1246E+02  0.1644E+02
 -13.115  0.1220E+02  0.1656E+02
 -13.105  0.1193E+02  0.1668E+02
 -13.095  0.1166E+02  0.1680E+02
 -13.085  0.1139E+02  0.1691E+02
 -13.075  0.1113E+02  0.1702E+02
 -13.065  0.1086E+02  0.1713E+02
 -13.055  0.1059E+02  0.1724E+02
 -13.045  0.1032E+02  0.1734E+02
 -13.035  0.1006E+02  0.1744E+02
 -13.025  0.9795E+01  0.1754E+02
 -13.015  0.9532E+01  0.1764E+02
 -13.005  0.9271E+01  0.1773E+02
 -12.995  0.9012E+01  0.1782E+02
 -12.985  0.8755E+01  0.1791E+02
 -12.975  0.8501E+01  0.1799E+02
 -12.965  0.8249E+01  0.1807E+02
 -12.955  0.8000E+01  0.1815E+02
 -12.945  0.7754E+01  0.1823E+02
 -12.935  0.7512E+01  0.1831E+02
 -12.925  0.7273E+01  0.1838E+02
 -12.915  0.7037E+01  0.1845E+02
 -12.905  0.6805E+01  0.1852E+02
 -12.895  0.6577E+01  0.1858E+02
 -12.885  0.6353E+01  0.1865E+02
 -12.875  0.6133E+01  0.1871E+02
 -12.865  0.5917E+01  0.1877E+02
 -12.855  0.5706E+01  0.1882E+02
 -12.845  0.5498E+01  0.1888E+02
 -12.835  0.5296E+01  0.1893E+02
 -12.825  0.5097E+01  0.1898E+02
 -12.815  0.4904E+01  0.1903E+02
 -12.805  0.4715E+01  0.1908E+02
 -12.795  0.4530E+01  0.1912E+02
 -12.785  0.4350E+01  0.1917E+02
 -12.775  0.4175E+01  0.1921E+02
 -12.765  0.4005E+01  0.1925E+02
 -12.755  0.3839E+01  0.1929E+02
 -12.745  0.3678E+01  0.1932E+02
 -12.735  0.3522E+01  0.1936E+02
 -12.725  0.3370E+01  0.1939E+02
 -12.715  0.3223E+01  0.1943E+02
 -12.705  0.3080E+01  0.1946E+02
 -12.695  0.2942E+01  0.1949E+02
 -12.685  0.2809E+01  0.1951E+02
 -12.675  0.2680E+01  0.1954E+02
 -12.665  0.2555E+01  0.1957E+02
 -12.655  0.2435E+01  0.1959E+02
 -12.645  0.2319E+01  0.1961E+02
 -12.635  0.2207E+01  0.1964E+02
 -12.625  0.2100E+01  0.1966E+02
 -12.615  0.1996E+01  0.1968E+02
 -12.605  0.1896E+01  0.1970E+02
 -12.595  0.1801E+01  0.1971E+02
 -12.585  0.1709E+01  0.1973E+02
 -12.575  0.1620E+01  0.1975E+02
 -12.565  0.1536E+01  0.1976E+02
 -12.555  0.1455E+01  0.1978E+02
 -12.545  0.1377E+01  0.1979E+02
 -12.535  0.1303E+01  0.1980E+02
 -12.525  0.1232E+01  0.1982E+02
 -12.515  0.1164E+01  0.1983E+02
 -12.505  0.1099E+01  0.1984E+02
 -12.495  0.1037E+01  0.1985E+02
 -12.485  0.9785E+00  0.1986E+02
 -12.475  0.9223E+00  0.1987E+02
 -12.465  0.8689E+00  0.1988E+02
 -12.455  0.8180E+00  0.1989E+02
 -12.445  0.7697E+00  0.1989E+02
 -12.435  0.7237E+00  0.1990E+02
 -12.425  0.6801E+00  0.1991E+02
 -12.415  0.6388E+00  0.1991E+02
 -12.405  0.5995E+00  0.1992E+02
 -12.395  0.5624E+00  0.1992E+02
 -12.385  0.5272E+00  0.1993E+02
 -12.375  0.4939E+00  0.1994E+02
 -12.365  0.4624E+00  0.1994E+02
 -12.355  0.4327E+00  0.1994E+02
 -12.345  0.4046E+00  0.1995E+02
 -12.335  0.3781E+00  0.1995E+02
 -12.325  0.3531E+00  0.1996E+02
 -12.315  0.3296E+00  0.1996E+02
 -12.305  0.3075E+00  0.1996E+02
 -12.295  0.2866E+00  0.1996E+02
 -12.285  0.2670E+00  0.1997E+02
 -12.275  0.2486E+00  0.1997E+02
 -12.265  0.2313E+00  0.1997E+02
 -12.255  0.2151E+00  0.1997E+02
 -12.245  0.1999E+00  0.1998E+02
 -12.235  0.1857E+00  0.1998E+02
 -12.225  0.1723E+00  0.1998E+02
 -12.215  0.1598E+00  0.1998E+02
 -12.205  0.1482E+00  0.1998E+02
 -12.195  0.1373E+00  0.1998E+02
 -12.185  0.1271E+00  0.1999E+02
 -12.175  0.1176E+00  0.1999E+02
 -12.165  0.1087E+00  0.1999E+02
 -12.155  0.1005E+00  0.1999E+02
 -12.145  0.9279E-01  0.1999E+02
 -12.135  0.8564E-01  0.1999E+02
 -12.125  0.7898E-01  0.1999E+02
 -12.115  0.7280E-01  0.1999E+02
 -12.105  0.6707E-01  0.1999E+02
 -12.095  0.6174E-01  0.1999E+02
 -12.085  0.5680E-01  0.1999E+02
 -12.075  0.5222E-01  0.1999E+02
 -12.065  0.4799E-01  0.1999E+02
 -12.055  0.4406E-01  0.2000E+02
 -12.045  0.4044E-01  0.2000E+02
 -12.035  0.3708E-01  0.2000E+02
 -12.025  0.3399E-01  0.2000E+02
 -12.015  0.3113E-01  0.2000E+02
 -12.005  0.2850E-01  0.2000E+02
 -11.995  0.2607E-01  0.2000E+02
 -11.985  0.2383E-01  0.2000E+02
 -11.975  0.2177E-01  0.2000E+02
 -11.965  0.1988E-01  0.2000E+02
 -11.955  0.1814E-01  0.2000E+02
 -11.945  0.1654E-01  0.2000E+02
 -11.935  0.1507E-01  0.2000E+02
 -11.925  0.1372E-01  0.2000E+02
 -11.915  0.1249E-01  0.2000E+02
 -11.905  0.1136E-01  0.2000E+02
 -11.895  0.1033E-01  0.2000E+02
 -11.885  0.9380E-02  0.2000E+02
 -11.875  0.8515E-02  0.2000E+02
 -11.865  0.7725E-02  0.2000E+02
 -11.855  0.7003E-02  0.2000E+02
 -11.845  0.6345E-02  0.2000E+02
 -11.835  0.5745E-02  0.2000E+02
 -11.825  0.5199E-02  0.2000E+02
 -11.815  0.4701E-02  0.2000E+02
 -11.805  0.4248E-02  0.2000E+02
 -11.795  0.3837E-02  0.2000E+02
 -11.785  0.3463E-02  0.2000E+02
 -11.775  0.3123E-02  0.2000E+02
 -11.765  0.2815E-02  0.2000E+02
 -11.755  0.2536E-02  0.2000E+02
 -11.745  0.2283E-02  0.2000E+02
 -11.735  0.2054E-02  0.2000E+02
 -11.725  0.1846E-02  0.2000E+02
 -11.715  0.1659E-02  0.2000E+02
 -11.705  0.1490E-02  0.2000E+02
 -11.695  0.1337E-02  0.2000E+02
 -11.685  0.1199E-02  0.2000E+02
 -11.675  0.1074E-02  0.2000E+02
 -11.665  0.9619E-03  0.2000E+02
 -11.655  0.8609E-03  0.2000E+02
 -11.645  0.7700E-03  0.2000E+02
 -11.635  0.6882E-03  0.2000E+02
 -11.625  0.6147E-03  0.2000E+02
 -11.615  0.5488E-03  0.2000E+02
 -11.605  0.4895E-03  0.2000E+02
 -11.595  0.4364E-03  0.2000E+02
 -11.585  0.3888E-03  0.2000E+02
 -11.575  0.3462E-03  0.2000E+02
 -11.565  0.3080E-03  0.2000E+02
 -11.555  0.2739E-03  0.2000E+02
 -11.545  0.2434E-03  0.2000E+02
 -11.535  0.2161E-03  0.2000E+02
 -11.525  0.1918E-03  0.2000E+02
 -11.515  0.1701E-03  0.2000E+02
 -11.505  0.1508E-03  0.2000E+02
 -11.495  0.1335E-03  0.2000E+02
 -11.485  0.1182E-03  0.2000E+02
 -11.475  0.1045E-03  0.2000E+02
 -11.465  0.9242E-04  0.2000E+02
 -11.455  0.8164E-04  0.2000E+02
 -11.445  0.7208E-04  0.2000E+02
 -11.435  0.6359E-04  0.2000E+02
 -11.425  0.5606E-04  0.2000E+02
 -11.415  0.4940E-04  0.2000E+02
 -11.405  0.4350E-04  0.2000E+02
 -11.395  0.3827E-04  0.2000E+02
 -11.385  0.3366E-04  0.2000E+02
 -11.375  0.2958E-04  0.2000E+02
 -11.365  0.2598E-04  0.2000E+02
 -11.355  0.2280E-04  0.2000E+02
 -11.345  0.1999E-04  0.2000E+02
 -11.335  0.1752E-04  0.2000E+02
 -11.325  0.1535E-04  0.2000E+02
 -11.315  0.1344E-04  0.2000E+02
 -11.305  0.1175E-04  0.2000E+02
 -11.295  0.1028E-04  0.2000E+02
 -11.285  0.8977E-05  0.2000E+02
 -11.275  0.7837E-05  0.2000E+02
 -11.265  0.6838E-05  0.2000E+02
 -11.255  0.5962E-05  0.2000E+02
 -11.245  0.5195E-05  0.2000E+02
 -11.235  0.4523E-05  0.2000E+02
 -11.225  0.3936E-05  0.2000E+02
 -11.215  0.3423E-05  0.2000E+02
 -11.205  0.2974E-05  0.2000E+02
 -11.195  0.2583E-05  0.2000E+02
 -11.185  0.2242E-05  0.2000E+02
 -11.175  0.1944E-05  0.2000E+02
 -11.165  0.1685E-05  0.2000E+02
 -11.155  0.1460E-05  0.2000E+02
 -11.145  0.1264E-05  0.2000E+02
 -11.135  0.1093E-05  0.2000E+02
 -11.125  0.9449E-06  0.2000E+02
 -11.115  0.8163E-06  0.2000E+02
 -11.105  0.7048E-06  0.2000E+02
 -11.095  0.6080E-06  0.2000E+02
 -11.085  0.5242E-06  0.2000E+02
 -11.075  0.4517E-06  0.2000E+02
 -11.065  0.3889E-06  0.2000E+02
 -11.055  0.3347E-06  0.2000E+02
 -11.045  0.2878E-06  0.2000E+02
 -11.035  0.2473E-06  0.2000E+02
 -11.025  0.2124E-06  0.2000E+02
 -11.015  0.1823E-06  0.2000E+02
 -11.005  0.1563E-06  0.2000E+02
 -10.995  0.1340E-06  0.2000E+02
 -10.985  0.1148E-06  0.2000E+02
 -10.975  0.9822E-07  0.2000E+02
 -10.965  0.8402E-07  0.2000E+02
 -10.955  0.7182E-07  0.2000E+02
 -10.945  0.6135E-07  0.2000E+02
 -10.935  0.5237E-07  0.2000E+02
 -10.925  0.4468E-07  0.2000E+02
 -10.915  0.3809E-07  0.2000E+02
 -10.905  0.3245E-07  0.2000E+02
 -10.895  0.2763E-07  0.2000E+02
 -10.885  0.2351E-07  0.2000E+02
 -10.875  0.1999E-07  0.2000E+02
 -10.865  0.1699E-07  0.2000E+02
 -10.855  0.1442E-07  0.2000E+02
 -10.845  0.1224E-07  0.2000E+02
 -10.835  0.1038E-07  0.2000E+02
 -10.825  0.8798E-08  0.2000E+02
 -10.815  0.7451E-08  0.2000E+02
 -10.805  0.6306E-08  0.2000E+02
 -10.795  0.5334E-08  0.2000E+02
 -10.785  0.4508E-08  0.2000E+02
 -10.775  0.3808E-08  0.2000E+02
 -10.765  0.3214E-08  0.2000E+02
 -10.755  0.2711E-08  0.2000E+02
 -10.745  0.2286E-08  0.2000E+02
 -10.735  0.1926E-08  0.2000E+02
 -10.725  0.1621E-08  0.2000E+02
 -10.715  0.1364E-08  0.2000E+02
 -10.705  0.1147E-08  0.2000E+02
 -10.695  0.9634E-09  0.2000E+02
 -10.685  0.8089E-09  0.2000E+02
 -10.675  0.6787E-09  0.2000E+02
 -10.665  0.5691E-09  0.2000E+02
 -10.655  0.4769E-09  0.2000E+02
 -10.645  0.3994E-09  0.2000E+02
 -10.635  0.3342E-09  0.2000E+02
 -10.625  0.2795E-09  0.2000E+02
 -10.615  0.2336E-09  0.2000E+02
 -10.605  0.1951E-09  0.2000E+02
 -10.595  0.1628E-09  0.2000E+02
 -10.585  0.1358E-09  0.2000E+02
 -10.575  0.1132E-09  0.2000E+02
 -10.565  0.9429E-10  0.2000E+02
 -10.555  0.7849E-10  0.2000E+02
 -10.545  0.6529E-10  0.2000E+02
 -10.535  0.5428E-10  0.2000E+02
 -10.525  0.4509E-10  0.2000E+02
 -10.515  0.3743E-10  0.2000E+02
 -10.505  0.3106E-10  0.2000E+02
 -10.495  0.2575E-10  0.2000E+02
 -10.485  0.2133E-10  0.2000E+02
 -10.475  0.1766E-10  0.2000E+02
 -10.465  0.1462E-10  0.2000E+02
 -10.455  0.1208E-10  0.2000E+02
 -10.445  0.9986E-11  0.2000E+02
 -10.435  0.8246E-11  0.2000E+02
 -10.425  0.6805E-11  0.2000E+02
 -10.415  0.5612E-11  0.2000E+02
 -10.405  0.4625E-11  0.2000E+02
 -10.395  0.3809E-11  0.2000E+02
 -10.385  0.3135E-11  0.2000E+02
 -10.375  0.2578E-11  0.2000E+02
 -10.365  0.2119E-11  0.2000E+02
 -10.355  0.1741E-11  0.2000E+02
 -10.345  0.1429E-11  0.2000E+02
 -10.335  0.1172E-11  0.2000E+02
 -10.325  0.9608E-12  0.2000E+02
 -10.315  0.7871E-12  0.2000E+02
 -10.305  0.6443E-12  0.2000E+02
 -10.295  0.5271E-12  0.2000E+02
 -10.285  0.4310E-12  0.2000E+02
 -10.275  0.3521E-12  0.2000E+02
 -10.265  0.2875E-12  0.2000E+02
 -10.255  0.2346E-12  0.2000E+02
 -10.245  0.1912E-12  0.2000E+02
 -10.235  0.1558E-12  0.2000E+02
 -10.225  0.1269E-12  0.2000E+02
 -10.215  0.1033E-12  0.2000E+02
 -10.205  0.8397E-13  0.2000E+02
 -10.195  0.6824E-13  0.2000E+02
 -10.185  0.5542E-13  0.2000E+02
 -10.175  0.4497E-13  0.2000E+02
 -10.165  0.3647E-13  0.2000E+02
 -10.155  0.2956E-13  0.2000E+02
 -10.145  0.2394E-13  0.2000E+02
 -10.135  0.1938E-13  0.2000E+02
 -10.125  0.1568E-13  0.2000E+02
 -10.115  0.1267E-13  0.2000E+02
 -10.105  0.1024E-13  0.2000E+02
 -10.095  0.8262E-14  0.2000E+02
 -10.085  0.6665E-14  0.2000E+02
 -10.075  0.5373E-14  0.2000E+02
 -10.065  0.4329E-14  0.2000E+02
 -10.055  0.3485E-14  0.2000E+02
 -10.045  0.2804E-14  0.2000E+02
 -10.035  0.2254E-14  0.2000E+02
 -10.025  0.1811E-14  0.2000E+02
 -10.015  0.1454E-14  0.2000E+02
 -10.005  0.1167E-14  0.2000E+02
  -9.995  0.9357E-15  0.2000E+02
  -9.985  0.7498E-15  0.2000E+02
  -9.975  0.6004E-15  0.2000E+02
  -9.965  0.4805E-15  0.2000E+02
  -9.955  0.3842E-15  0.2000E+02
  -9.945  0.3071E-15  0.2000E+02
  -9.935  0.2452E-15  0.2000E+02
  -9.925  0.1957E-15  0.2000E+02
  -9.915  0.1561E-15  0.2000E+02
  -9.905  0.1244E-15  0.2000E+02
  -9.895  0.9911E-16  0.2000E+02
  -9.885  0.7889E-16  0.2000E+02
  -9.875  0.6275E-16  0.2000E+02
  -9.865  0.4988E-16  0.2000E+02
  -9.855  0.3962E-16  0.2000E+02
  -9.845  0.3145E-16  0.2000E+02
  -9.835  0.2495E-16  0.2000E+02
  -9.825  0.1978E-16  0.2000E+02
  -9.815  0.1567E-16  0.2000E+02
  -9.805  0.1241E-16  0.2000E+02
  -9.795  0.9817E-17  0.2000E+02
  -9.785  0.7762E-17  0.2000E+02
  -9.775  0.6133E-17  0.2000E+02
  -9.765  0.4843E-17  0.2000E+02
  -9.755  0.3821E-17  0.2000E+02
  -9.745  0.3013E-17  0.2000E+02
  -9.735  0.2374E-17  0.2000E+02
  -9.725  0.1870E-17  0.2000E+02
  -9.715  0.1471E-17  0.2000E+02
  -9.705  0.1157E-17  0.2000E+02
  -9.695  0.9094E-18  0.2000E+02
  -9.685  0.7142E-18  0.2000E+02
  -9.675  0.5606E-18  0.2000E+02
  -9.665  0.4397E-18  0.2000E+02
  -9.655  0.3446E-18  0.2000E+02
  -9.645  0.2699E-18  0.2000E+02
  -9.635  0.2113E-18  0.2000E+02
  -9.625  0.1653E-18  0.2000E+02
  -9.615  0.1292E-18  0.2000E+02
  -9.605  0.1009E-18  0.2000E+02
  -9.595  0.7878E-19  0.2000E+02
  -9.585  0.6146E-19  0.2000E+02
  -9.575  0.4791E-19  0.2000E+02
  -9.565  0.3733E-19  0.2000E+02
  -9.555  0.2906E-19  0.2000E+02
  -9.545  0.2261E-19  0.2000E+02
  -9.535  0.1758E-19  0.2000E+02
  -9.525  0.1366E-19  0.2000E+02
  -9.515  0.1061E-19  0.2000E+02
  -9.505  0.8230E-20  0.2000E+02
  -9.495  0.6382E-20  0.2000E+02
  -9.485  0.4945E-20  0.2000E+02
  -9.475  0.3830E-20  0.2000E+02
  -9.465  0.2964E-20  0.2000E+02
  -9.455  0.2292E-20  0.2000E+02
  -9.445  0.1771E-20  0.2000E+02
  -9.435  0.1368E-20  0.2000E+02
  -9.425  0.1056E-20  0.2000E+02
  -9.415  0.8143E-21  0.2000E+02
  -9.405  0.6276E-21  0.2000E+02
  -9.395  0.4834E-21  0.2000E+02
  -9.385  0.3721E-21  0.2000E+02
  -9.375  0.2862E-21  0.2000E+02
  -9.365  0.2200E-21  0.2000E+02
  -9.355  0.1690E-21  0.2000E+02
  -9.345  0.1297E-21  0.2000E+02
  -9.335  0.9953E-22  0.2000E+02
  -9.325  0.7631E-22  0.2000E+02
  -9.315  0.5846E-22  0.2000E+02
  -9.305  0.4476E-22  0.2000E+02
  -9.295  0.3424E-22  0.2000E+02
  -9.285  0.2618E-22  0.2000E+02
  -9.275  0.2000E-22  0.2000E+02
  -9.265  0.1527E-22  0.2000E+02
  -9.255  0.1165E-22  0.2000E+02
  -9.245  0.8887E-23  0.2000E+02
  -9.235  0.6772E-23  0.2000E+02
  -9.225  0.5157E-23  0.2000E+02
  -9.215  0.3924E-23  0.2000E+02
  -9.205  0.2984E-23  0.2000E+02
  -9.195  0.2268E-23  0.2000E+02
  -9.185  0.1722E-23  0.2000E+02
  -9.175  0.1307E-23  0.2000E+02
  -9.165  0.9914E-24  0.2000E+02
  -9.155  0.7514E-24  0.2000E+02
  -9.145  0.5691E-24  0.2000E+02
  -9.135  0.4308E-24  0.2000E+02
  -9.125  0.3258E-24  0.2000E+02
  -9.115  0.2463E-24  0.2000E+02
  -9.105  0.1860E-24  0.2000E+02
  -9.095  0.1404E-24  0.2000E+02
  -9.085  0.1059E-24  0.2000E+02
  -9.075  0.7987E-25  0.2000E+02
  -9.065  0.6017E-25  0.2000E+02
  -9.055  0.4530E-25  0.2000E+02
  -9.045  0.3408E-25  0.2000E+02
  -9.035  0.2562E-25  0.2000E+02
  -9.025  0.1925E-25  0.2000E+02
  -9.015  0.1445E-25  0.2000E+02
  -9.005  0.1085E-25  0.2000E+02
  -8.995  0.8132E-26  0.2000E+02
  -8.985  0.6093E-26  0.2000E+02
  -8.975  0.4563E-26  0.2000E+02
  -8.965  0.3414E-26  0.2000E+02
  -8.955  0.2553E-26  0.2000E+02
  -8.945  0.1908E-26  0.2000E+02
  -8.935  0.1425E-26  0.2000E+02
  -8.925  0.1063E-26  0.2000E+02
  -8.915  0.7931E-27  0.2000E+02
  -8.905  0.5911E-27  0.2000E+02
  -8.895  0.4402E-27  0.2000E+02
  -8.885  0.3277E-27  0.2000E+02
  -8.875  0.2437E-27  0.2000E+02
  -8.865  0.1812E-27  0.2000E+02
  -8.855  0.1346E-27  0.2000E+02
  -8.845  0.9988E-28  0.2000E+02
  -8.835  0.7409E-28  0.2000E+02
  -8.825  0.5492E-28  0.2000E+02
  -8.815  0.4069E-28  0.2000E+02
  -8.805  0.3012E-28  0.2000E+02
  -8.795  0.2228E-28  0.2000E+02
  -8.785  0.1647E-28  0.2000E+02
  -8.775  0.1217E-28  0.2000E+02
  -8.765  0.8986E-29  0.2000E+02
  -8.755  0.6630E-29  0.2000E+02
  -8.745  0.4889E-29  0.2000E+02
  -8.735  0.3602E-29  0.2000E+02
  -8.725  0.2652E-29  0.2000E+02
  -8.715  0.1952E-29  0.2000E+02
  -8.705  0.1435E-29  0.2000E+02
  -8.695  0.1055E-29  0.2000E+02
  -8.685  0.7744E-30  0.2000E+02
  -8.675  0.5683E-30  0.2000E+02
  -8.665  0.4168E-30  0.2000E+02
  -8.655  0.3054E-30  0.2000E+02
  -8.645  0.2237E-30  0.2000E+02
  -8.635  0.1637E-30  0.2000E+02
  -8.625  0.1197E-30  0.2000E+02
  -8.615  0.8752E-31  0.2000E+02
  -8.605  0.6393E-31  0.2000E+02
  -8.595  0.4666E-31  0.2000E+02
  -8.585  0.3404E-31  0.2000E+02
  -8.575  0.2481E-31  0.2000E+02
  -8.565  0.1807E-31  0.2000E+02
  -8.555  0.1316E-31  0.2000E+02
  -8.545  0.9570E-32  0.2000E+02
  -8.535  0.6957E-32  0.2000E+02
  -8.525  0.5054E-32  0.2000E+02
  -8.515  0.3670E-32  0.2000E+02
  -8.505  0.2662E-32  0.2000E+02
  -8.495  0.1930E-32  0.2000E+02
  -8.485  0.1399E-32  0.2000E+02
  -8.475  0.1013E-32  0.2000E+02
  -8.465  0.7327E-33  0.2000E+02
  -8.455  0.5298E-33  0.2000E+02
  -8.445  0.3828E-33  0.2000E+02
  -8.435  0.2764E-33  0.2000E+02
  -8.425  0.1995E-33  0.2000E+02
  -8.415  0.1438E-33  0.2000E+02
  -8.405  0.1037E-33  0.2000E+02
  -8.395  0.7465E-34  0.2000E+02
  -8.385  0.5372E-34  0.2000E+02
  -8.375  0.3864E-34  0.2000E+02
  -8.365  0.2777E-34  0.2000E+02
  -8.355  0.1994E-34  0.2000E+02
  -8.345  0.1431E-34  0.2000E+02
  -8.335  0.1027E-34  0.2000E+02
  -8.325  0.7359E-35  0.2000E+02
  -8.315  0.5271E-35  0.2000E+02
  -8.305  0.3773E-35  0.2000E+02
  -8.295  0.2699E-35  0.2000E+02
  -8.285  0.1929E-35  0.2000E+02
  -8.275  0.1378E-35  0.2000E+02
  -8.265  0.9840E-36  0.2000E+02
  -8.255  0.7020E-36  0.2000E+02
  -8.245  0.5005E-36  0.2000E+02
  -8.235  0.3565E-36  0.2000E+02
  -8.225  0.2538E-36  0.2000E+02
  -8.215  0.1806E-36  0.2000E+02
  -8.205  0.1284E-36  0.2000E+02
  -8.195  0.9124E-37  0.2000E+02
  -8.185  0.6479E-37  0.2000E+02
  -8.175  0.4597E-37  0.2000E+02
  -8.165  0.3260E-37  0.2000E+02
  -8.155  0.2310E-37  0.2000E+02
  -8.145  0.1636E-37  0.2000E+02
  -8.135  0.1158E-37  0.2000E+02
  -8.125  0.8186E-38  0.2000E+02
  -8.115  0.5785E-38  0.2000E+02
  -8.105  0.4086E-38  0.2000E+02
  -8.095  0.2883E-38  0.2000E+02
  -8.085  0.2034E-38  0.2000E+02
  -8.075  0.1433E-38  0.2000E+02
  -8.065  0.1010E-38  0.2000E+02
  -8.055  0.7106E-39  0.2000E+02
  -8.045  0.4998E-39  0.2000E+02
  -8.035  0.3513E-39  0.2000E+02
  -8.025  0.2468E-39  0.2000E+02
  -8.015  0.1732E-39  0.2000E+02
  -8.005  0.1215E-39  0.2000E+02
  -7.995  0.8521E-40  0.2000E+02
  -7.985  0.5970E-40  0.2000E+02
  -7.975  0.4182E-40  0.2000E+02
  -7.965  0.2928E-40  0.2000E+02
  -7.955  0.2051E-40  0.2000E+02
  -7.945  0.1439E-40  0.2000E+02
  -7.935  0.1012E-40  0.2000E+02
  -7.925  0.7175E-41  0.2000E+02
  -7.915  0.5162E-41  0.2000E+02
  -7.905  0.3825E-41  0.2000E+02
  -7.895  0.2988E-41  0.2000E+02
  -7.885  0.2542E-41  0.2000E+02
  -7.875  0.2425E-41  0.2000E+02
  -7.865  0.2620E-41  0.2000E+02
  -7.855  0.3149E-41  0.2000E+02
  -7.845  0.4072E-41  0.2000E+02
  -7.835  0.5501E-41  0.2000E+02
  -7.825  0.7609E-41  0.2000E+02
  -7.815  0.1065E-40  0.2000E+02
  -7.805  0.1499E-40  0.2000E+02
  -7.795  0.2115E-40  0.2000E+02
  -7.785  0.2987E-40  0.2000E+02
  -7.775  0.4218E-40  0.2000E+02
  -7.765  0.5955E-40  0.2000E+02
  -7.755  0.8404E-40  0.2000E+02
  -7.745  0.1185E-39  0.2000E+02
  -7.735  0.1670E-39  0.2000E+02
  -7.725  0.2353E-39  0.2000E+02
  -7.715  0.3312E-39  0.2000E+02
  -7.705  0.4659E-39  0.2000E+02
  -7.695  0.6549E-39  0.2000E+02
  -7.685  0.9200E-39  0.2000E+02
  -7.675  0.1292E-38  0.2000E+02
  -7.665  0.1812E-38  0.2000E+02
  -7.655  0.2540E-38  0.2000E+02
  -7.645  0.3559E-38  0.2000E+02
  -7.635  0.4983E-38  0.2000E+02
  -7.625  0.6972E-38  0.2000E+02
  -7.615  0.9749E-38  0.2000E+02
  -7.605  0.1362E-37  0.2000E+02
  -7.595  0.1902E-37  0.2000E+02
  -7.585  0.2654E-37  0.2000E+02
  -7.575  0.3701E-37  0.2000E+02
  -7.565  0.5158E-37  0.2000E+02
  -7.555  0.7183E-37  0.2000E+02
  -7.545  0.9997E-37  0.2000E+02
  -7.535  0.1390E-36  0.2000E+02
  -7.525  0.1932E-36  0.2000E+02
  -7.515  0.2684E-36  0.2000E+02
  -7.505  0.3725E-36  0.2000E+02
  -7.495  0.5167E-36  0.2000E+02
  -7.485  0.7162E-36  0.2000E+02
  -7.475  0.9920E-36  0.2000E+02
  -7.465  0.1373E-35  0.2000E+02
  -7.455  0.1900E-35  0.2000E+02
  -7.445  0.2626E-35  0.2000E+02
  -7.435  0.3628E-35  0.2000E+02
  -7.425  0.5008E-35  0.2000E+02
  -7.415  0.6910E-35  0.2000E+02
  -7.405  0.9527E-35  0.2000E+02
  -7.395  0.1313E-34  0.2000E+02
  -7.385  0.1807E-34  0.2000E+02
  -7.375  0.2487E-34  0.2000E+02
  -7.365  0.3419E-34  0.2000E+02
  -7.355  0.4699E-34  0.2000E+02
  -7.345  0.6452E-34  0.2000E+02
  -7.335  0.8854E-34  0.2000E+02
  -7.325  0.1214E-33  0.2000E+02
  -7.315  0.1664E-33  0.2000E+02
  -7.305  0.2279E-33  0.2000E+02
  -7.295  0.3119E-33  0.2000E+02
  -7.285  0.4266E-33  0.2000E+02
  -7.275  0.5831E-33  0.2000E+02
  -7.265  0.7964E-33  0.2000E+02
  -7.255  0.1087E-32  0.2000E+02
  -7.245  0.1483E-32  0.2000E+02
  -7.235  0.2021E-32  0.2000E+02
  -7.225  0.2753E-32  0.2000E+02
  -7.215  0.3748E-32  0.2000E+02
  -7.205  0.5099E-32  0.2000E+02
  -7.195  0.6932E-32  0.2000E+02
  -7.185  0.9418E-32  0.2000E+02
  -7.175  0.1279E-31  0.2000E+02
  -7.165  0.1735E-31  0.2000E+02
  -7.155  0.2352E-31  0.2000E+02
  -7.145  0.3187E-31  0.2000E+02
  -7.135  0.4316E-31  0.2000E+02
  -7.125  0.5840E-31  0.2000E+02
  -7.115  0.7897E-31  0.2000E+02
  -7.105  0.1067E-30  0.2000E+02
  -7.095  0.1441E-30  0.2000E+02
  -7.085  0.1945E-30  0.2000E+02
  -7.075  0.2623E-30  0.2000E+02
  -7.065  0.3535E-30  0.2000E+02
  -7.055  0.4761E-30  0.2000E+02
  -7.045  0.6408E-30  0.2000E+02
  -7.035  0.8620E-30  0.2000E+02
  -7.025  0.1159E-29  0.2000E+02
  -7.015  0.1556E-29  0.2000E+02
  -7.005  0.2089E-29  0.2000E+02
  -6.995  0.2802E-29  0.2000E+02
  -6.985  0.3757E-29  0.2000E+02
  -6.975  0.5033E-29  0.2000E+02
  -6.965  0.6738E-29  0.2000E+02
  -6.955  0.9015E-29  0.2000E+02
  -6.945  0.1205E-28  0.2000E+02
  -6.935  0.1610E-28  0.2000E+02
  -6.925  0.2150E-28  0.2000E+02
  -6.915  0.2869E-28  0.2000E+02
  -6.905  0.3826E-28  0.2000E+02
  -6.895  0.5098E-28  0.2000E+02
  -6.885  0.6788E-28  0.2000E+02
  -6.875  0.9034E-28  0.2000E+02
  -6.865  0.1201E-27  0.2000E+02
  -6.855  0.1597E-27  0.2000E+02
  -6.845  0.2120E-27  0.2000E+02
  -6.835  0.2814E-27  0.2000E+02
  -6.825  0.3733E-27  0.2000E+02
  -6.815  0.4947E-27  0.2000E+02
  -6.805  0.6553E-27  0.2000E+02
  -6.795  0.8674E-27  0.2000E+02
  -6.785  0.1147E-26  0.2000E+02
  -6.775  0.1517E-26  0.2000E+02
  -6.765  0.2004E-26  0.2000E+02
  -6.755  0.2645E-26  0.2000E+02
  -6.745  0.3490E-26  0.2000E+02
  -6.735  0.4601E-26  0.2000E+02
  -6.725  0.6062E-26  0.2000E+02
  -6.715  0.7981E-26  0.2000E+02
  -6.705  0.1050E-25  0.2000E+02
  -6.695  0.1381E-25  0.2000E+02
  -6.685  0.1814E-25  0.2000E+02
  -6.675  0.2383E-25  0.2000E+02
  -6.665  0.3127E-25  0.2000E+02
  -6.655  0.4100E-25  0.2000E+02
  -6.645  0.5373E-25  0.2000E+02
  -6.635  0.7037E-25  0.2000E+02
  -6.625  0.9210E-25  0.2000E+02
  -6.615  0.1205E-24  0.2000E+02
  -6.605  0.1574E-24  0.2000E+02
  -6.595  0.2056E-24  0.2000E+02
  -6.585  0.2684E-24  0.2000E+02
  -6.575  0.3501E-24  0.2000E+02
  -6.565  0.4564E-24  0.2000E+02
  -6.555  0.5946E-24  0.2000E+02
  -6.545  0.7740E-24  0.2000E+02
  -6.535  0.1007E-23  0.2000E+02
  -6.525  0.1309E-23  0.2000E+02
  -6.515  0.1701E-23  0.2000E+02
  -6.505  0.2208E-23  0.2000E+02
  -6.495  0.2865E-23  0.2000E+02
  -6.485  0.3715E-23  0.2000E+02
  -6.475  0.4814E-23  0.2000E+02
  -6.465  0.6233E-23  0.2000E+02
  -6.455  0.8066E-23  0.2000E+02
  -6.445  0.1043E-22  0.2000E+02
  -6.435  0.1348E-22  0.2000E+02
  -6.425  0.1741E-22  0.2000E+02
  -6.415  0.2247E-22  0.2000E+02
  -6.405  0.2898E-22  0.2000E+02
  -6.395  0.3735E-22  0.2000E+02
  -6.385  0.4811E-22  0.2000E+02
  -6.375  0.6192E-22  0.2000E+02
  -6.365  0.7965E-22  0.2000E+02
  -6.355  0.1024E-21  0.2000E+02
  -6.345  0.1315E-21  0.2000E+02
  -6.335  0.1689E-21  0.2000E+02
  -6.325  0.2166E-21  0.2000E+02
  -6.315  0.2777E-21  0.2000E+02
  -6.305  0.3558E-21  0.2000E+02
  -6.295  0.4556E-21  0.2000E+02
  -6.285  0.5829E-21  0.2000E+02
  -6.275  0.7453E-21  0.2000E+02
  -6.265  0.9524E-21  0.2000E+02
  -6.255  0.1216E-20  0.2000E+02
  -6.245  0.1552E-20  0.2000E+02
  -6.235  0.1979E-20  0.2000E+02
  -6.225  0.2522E-20  0.2000E+02
  -6.215  0.3212E-20  0.2000E+02
  -6.205  0.4088E-20  0.2000E+02
  -6.195  0.5199E-20  0.2000E+02
  -6.185  0.6608E-20  0.2000E+02
  -6.175  0.8394E-20  0.2000E+02
  -6.165  0.1065E-19  0.2000E+02
  -6.155  0.1352E-19  0.2000E+02
  -6.145  0.1713E-19  0.2000E+02
  -6.135  0.2170E-19  0.2000E+02
  -6.125  0.2748E-19  0.2000E+02
  -6.115  0.3476E-19  0.2000E+02
  -6.105  0.4395E-19  0.2000E+02
  -6.095  0.5553E-19  0.2000E+02
  -6.085  0.7011E-19  0.2000E+02
  -6.075  0.8847E-19  0.2000E+02
  -6.065  0.1116E-18  0.2000E+02
  -6.055  0.1406E-18  0.2000E+02
  -6.045  0.1770E-18  0.2000E+02
  -6.035  0.2228E-18  0.2000E+02
  -6.025  0.2801E-18  0.2000E+02
  -6.015  0.3521E-18  0.2000E+02
  -6.005  0.4422E-18  0.2000E+02
  -5.995  0.5550E-18  0.2000E+02
  -5.985  0.6961E-18  0.2000E+02
  -5.975  0.8725E-18  0.2000E+02
  -5.965  0.1093E-17  0.2000E+02
  -5.955  0.1368E-17  0.2000E+02
  -5.945  0.1711E-17  0.2000E+02
  -5.935  0.2140E-17  0.2000E+02
  -5.925  0.2673E-17  0.2000E+02
  -5.915  0.3337E-17  0.2000E+02
  -5.905  0.4164E-17  0.2000E+02
  -5.895  0.5191E-17  0.2000E+02
  -5.885  0.6468E-17  0.2000E+02
  -5.875  0.8054E-17  0.2000E+02
  -5.865  0.1002E-16  0.2000E+02
  -5.855  0.1246E-16  0.2000E+02
  -5.845  0.1549E-16  0.2000E+02
  -5.835  0.1923E-16  0.2000E+02
  -5.825  0.2387E-16  0.2000E+02
  -5.815  0.2960E-16  0.2000E+02
  -5.805  0.3669E-16  0.2000E+02
  -5.795  0.4545E-16  0.2000E+02
  -5.785  0.5625E-16  0.2000E+02
  -5.775  0.6958E-16  0.2000E+02
  -5.765  0.8602E-16  0.2000E+02
  -5.755  0.1063E-15  0.2000E+02
  -5.745  0.1312E-15  0.2000E+02
  -5.735  0.1618E-15  0.2000E+02
  -5.725  0.1995E-15  0.2000E+02
  -5.715  0.2458E-15  0.2000E+02
  -5.705  0.3027E-15  0.2000E+02
  -5.695  0.3724E-15  0.2000E+02
  -5.685  0.4580E-15  0.2000E+02
  -5.675  0.5627E-15  0.2000E+02
  -5.665  0.6911E-15  0.2000E+02
  -5.655  0.8481E-15  0.2000E+02
  -5.645  0.1040E-14  0.2000E+02
  -5.635  0.1275E-14  0.2000E+02
  -5.625  0.1561E-14  0.2000E+02
  -5.615  0.1911E-14  0.2000E+02
  -5.605  0.2337E-14  0.2000E+02
  -5.595  0.2857E-14  0.2000E+02
  -5.585  0.3490E-14  0.2000E+02
  -5.575  0.4260E-14  0.2000E+02
  -5.565  0.5197E-14  0.2000E+02
  -5.555  0.6336E-14  0.2000E+02
  -5.545  0.7720E-14  0.2000E+02
  -5.535  0.9399E-14  0.2000E+02
  -5.525  0.1144E-13  0.2000E+02
  -5.515  0.1391E-13  0.2000E+02
  -5.505  0.1690E-13  0.2000E+02
  -5.495  0.2052E-13  0.2000E+02
  -5.485  0.2490E-13  0.2000E+02
  -5.475  0.3020E-13  0.2000E+02
  -5.465  0.3660E-13  0.2000E+02
  -5.455  0.4432E-13  0.2000E+02
  -5.445  0.5365E-13  0.2000E+02
  -5.435  0.6489E-13  0.2000E+02
  -5.425  0.7843E-13  0.2000E+02
  -5.415  0.9474E-13  0.2000E+02
  -5.405  0.1144E-12  0.2000E+02
  -5.395  0.1380E-12  0.2000E+02
  -5.385  0.1663E-12  0.2000E+02
  -5.375  0.2004E-12  0.2000E+02
  -5.365  0.2413E-12  0.2000E+02
  -5.355  0.2903E-12  0.2000E+02
  -5.345  0.3491E-12  0.2000E+02
  -5.335  0.4194E-12  0.2000E+02
  -5.325  0.5037E-12  0.2000E+02
  -5.315  0.6044E-12  0.2000E+02
  -5.305  0.7249E-12  0.2000E+02
  -5.295  0.8688E-12  0.2000E+02
  -5.285  0.1041E-11  0.2000E+02
  -5.275  0.1245E-11  0.2000E+02
  -5.265  0.1490E-11  0.2000E+02
  -5.255  0.1781E-11  0.2000E+02
  -5.245  0.2127E-11  0.2000E+02
  -5.235  0.2539E-11  0.2000E+02
  -5.225  0.3029E-11  0.2000E+02
  -5.215  0.3611E-11  0.2000E+02
  -5.205  0.4303E-11  0.2000E+02
  -5.195  0.5123E-11  0.2000E+02
  -5.185  0.6096E-11  0.2000E+02
  -5.175  0.7248E-11  0.2000E+02
  -5.165  0.8613E-11  0.2000E+02
  -5.155  0.1023E-10  0.2000E+02
  -5.145  0.1214E-10  0.2000E+02
  -5.135  0.1440E-10  0.2000E+02
  -5.125  0.1706E-10  0.2000E+02
  -5.115  0.2021E-10  0.2000E+02
  -5.105  0.2392E-10  0.2000E+02
  -5.095  0.2830E-10  0.2000E+02
  -5.085  0.3345E-10  0.2000E+02
  -5.075  0.3952E-10  0.2000E+02
  -5.065  0.4665E-10  0.2000E+02
  -5.055  0.5504E-10  0.2000E+02
  -5.045  0.6489E-10  0.2000E+02
  -5.035  0.7646E-10  0.2000E+02
  -5.025  0.9003E-10  0.2000E+02
  -5.015  0.1059E-09  0.2000E+02
  -5.005  0.1246E-09  0.2000E+02
  -4.995  0.1464E-09  0.2000E+02
  -4.985  0.1720E-09  0.2000E+02
  -4.975  0.2018E-09  0.2000E+02
  -4.965  0.2367E-09  0.2000E+02
  -4.955  0.2775E-09  0.2000E+02
  -4.945  0.3250E-09  0.2000E+02
  -4.935  0.3805E-09  0.2000E+02
  -4.925  0.4451E-09  0.2000E+02
  -4.915  0.5204E-09  0.2000E+02
  -4.905  0.6080E-09  0.2000E+02
  -4.895  0.7098E-09  0.2000E+02
  -4.885  0.8282E-09  0.2000E+02
  -4.875  0.9658E-09  0.2000E+02
  -4.865  0.1125E-08  0.2000E+02
  -4.855  0.1311E-08  0.2000E+02
  -4.845  0.1525E-08  0.2000E+02
  -4.835  0.1774E-08  0.2000E+02
  -4.825  0.2062E-08  0.2000E+02
  -4.815  0.2395E-08  0.2000E+02
  -4.805  0.2780E-08  0.2000E+02
  -4.795  0.3225E-08  0.2000E+02
  -4.785  0.3739E-08  0.2000E+02
  -4.775  0.4331E-08  0.2000E+02
  -4.765  0.5015E-08  0.2000E+02
  -4.755  0.5802E-08  0.2000E+02
  -4.745  0.6709E-08  0.2000E+02
  -4.735  0.7753E-08  0.2000E+02
  -4.725  0.8953E-08  0.2000E+02
  -4.715  0.1033E-07  0.2000E+02
  -4.705  0.1192E-07  0.2000E+02
  -4.695  0.1373E-07  0.2000E+02
  -4.685  0.1582E-07  0.2000E+02
  -4.675  0.1821E-07  0.2000E+02
  -4.665  0.2095E-07  0.2000E+02
  -4.655  0.2408E-07  0.2000E+02
  -4.645  0.2766E-07  0.2000E+02
  -4.635  0.3176E-07  0.2000E+02
  -4.625  0.3644E-07  0.2000E+02
  -4.615  0.4178E-07  0.2000E+02
  -4.605  0.4788E-07  0.2000E+02
  -4.595  0.5483E-07  0.2000E+02
  -4.585  0.6275E-07  0.2000E+02
  -4.575  0.7177E-07  0.2000E+02
  -4.565  0.8203E-07  0.2000E+02
  -4.555  0.9369E-07  0.2000E+02
  -4.545  0.1069E-06  0.2000E+02
  -4.535  0.1220E-06  0.2000E+02
  -4.525  0.1391E-06  0.2000E+02
  -4.515  0.1585E-06  0.2000E+02
  -4.505  0.1804E-06  0.2000E+02
  -4.495  0.2053E-06  0.2000E+02
  -4.485  0.2334E-06  0.2000E+02
  -4.475  0.2653E-06  0.2000E+02
  -4.465  0.3013E-06  0.2000E+02
  -4.455  0.3419E-06  0.2000E+02
  -4.445  0.3878E-06  0.2000E+02
  -4.435  0.4396E-06  0.2000E+02
  -4.425  0.4979E-06  0.2000E+02
  -4.415  0.5637E-06  0.2000E+02
  -4.405  0.6377E-06  0.2000E+02
  -4.395  0.7210E-06  0.2000E+02
  -4.385  0.8147E-06  0.2000E+02
  -4.375  0.9199E-06  0.2000E+02
  -4.365  0.1038E-05  0.2000E+02
  -4.355  0.1171E-05  0.2000E+02
  -4.345  0.1319E-05  0.2000E+02
  -4.335  0.1486E-05  0.2000E+02
  -4.325  0.1673E-05  0.2000E+02
  -4.315  0.1882E-05  0.2000E+02
  -4.305  0.2115E-05  0.2000E+02
  -4.295  0.2376E-05  0.2000E+02
  -4.285  0.2668E-05  0.2000E+02
  -4.275  0.2994E-05  0.2000E+02
  -4.265  0.3357E-05  0.2000E+02
  -4.255  0.3762E-05  0.2000E+02
  -4.245  0.4213E-05  0.2000E+02
  -4.235  0.4715E-05  0.2000E+02
  -4.225  0.5274E-05  0.2000E+02
  -4.215  0.5895E-05  0.2000E+02
  -4.205  0.6585E-05  0.2000E+02
  -4.195  0.7352E-05  0.2000E+02
  -4.185  0.8202E-05  0.2000E+02
  -4.175  0.9146E-05  0.2000E+02
  -4.165  0.1019E-04  0.2000E+02
  -4.155  0.1135E-04  0.2000E+02
  -4.145  0.1263E-04  0.2000E+02
  -4.135  0.1405E-04  0.2000E+02
  -4.125  0.1561E-04  0.2000E+02
  -4.115  0.1734E-04  0.2000E+02
  -4.105  0.1925E-04  0.2000E+02
  -4.095  0.2136E-04  0.2000E+02
  -4.085  0.2368E-04  0.2000E+02
  -4.075  0.2624E-04  0.2000E+02
  -4.065  0.2906E-04  0.2000E+02
  -4.055  0.3216E-04  0.2000E+02
  -4.045  0.3557E-04  0.2000E+02
  -4.035  0.3931E-04  0.2000E+02
  -4.025  0.4342E-04  0.2000E+02
  -4.015  0.4794E-04  0.2000E+02
  -4.005  0.5289E-04  0.2000E+02
  -3.995  0.5831E-04  0.2000E+02
  -3.985  0.6425E-04  0.2000E+02
  -3.975  0.7075E-04  0.2000E+02
  -3.965  0.7787E-04  0.2000E+02
  -3.955  0.8564E-04  0.2000E+02
  -3.945  0.9413E-04  0.2000E+02
  -3.935  0.1034E-03  0.2000E+02
  -3.925  0.1135E-03  0.2000E+02
  -3.915  0.1245E-03  0.2000E+02
  -3.905  0.1366E-03  0.2000E+02
  -3.895  0.1496E-03  0.2000E+02
  -3.885  0.1639E-03  0.2000E+02
  -3.875  0.1794E-03  0.2000E+02
  -3.865  0.1962E-03  0.2000E+02
  -3.855  0.2145E-03  0.2000E+02
  -3.845  0.2343E-03  0.2000E+02
  -3.835  0.2558E-03  0.2000E+02
  -3.825  0.2791E-03  0.2000E+02
  -3.815  0.3044E-03  0.2000E+02
  -3.805  0.3317E-03  0.2000E+02
  -3.795  0.3613E-03  0.2000E+02
  -3.785  0.3933E-03  0.2000E+02
  -3.775  0.4278E-03  0.2000E+02
  -3.765  0.4651E-03  0.2000E+02
  -3.755  0.5053E-03  0.2000E+02
  -3.745  0.5487E-03  0.2000E+02
  -3.735  0.5955E-03  0.2000E+02
  -3.725  0.6459E-03  0.2000E+02
  -3.715  0.7001E-03  0.2000E+02
  -3.705  0.7584E-03  0.2000E+02
  -3.695  0.8211E-03  0.2000E+02
  -3.685  0.8884E-03  0.2000E+02
  -3.675  0.9607E-03  0.2000E+02
  -3.665  0.1038E-02  0.2000E+02
  -3.655  0.1121E-02  0.2000E+02
  -3.645  0.1210E-02  0.2000E+02
  -3.635  0.1306E-02  0.2000E+02
  -3.625  0.1408E-02  0.2000E+02
  -3.615  0.1517E-02  0.2000E+02
  -3.605  0.1634E-02  0.2000E+02
  -3.595  0.1758E-02  0.2000E+02
  -3.585  0.1891E-02  0.2000E+02
  -3.575  0.2033E-02  0.2000E+02
  -3.565  0.2184E-02  0.2000E+02
  -3.555  0.2345E-02  0.2000E+02
  -3.545  0.2517E-02  0.2000E+02
  -3.535  0.2699E-02  0.2000E+02
  -3.525  0.2893E-02  0.2000E+02
  -3.515  0.3099E-02  0.2000E+02
  -3.505  0.3318E-02  0.2000E+02
  -3.495  0.3551E-02  0.2000E+02
  -3.485  0.3797E-02  0.2000E+02
  -3.475  0.4059E-02  0.2000E+02
  -3.465  0.4335E-02  0.2000E+02
  -3.455  0.4628E-02  0.2000E+02
  -3.445  0.4938E-02  0.2000E+02
  -3.435  0.5266E-02  0.2000E+02
  -3.425  0.5612E-02  0.2000E+02
  -3.415  0.5978E-02  0.2000E+02
  -3.405  0.6364E-02  0.2000E+02
  -3.395  0.6771E-02  0.2000E+02
  -3.385  0.7200E-02  0.2000E+02
  -3.375  0.7652E-02  0.2000E+02
  -3.365  0.8128E-02  0.2000E+02
  -3.355  0.8628E-02  0.2000E+02
  -3.345  0.9155E-02  0.2000E+02
  -3.335  0.9708E-02  0.2000E+02
  -3.325  0.1029E-01  0.2000E+02
  -3.315  0.1090E-01  0.2000E+02
  -3.305  0.1154E-01  0.2000E+02
  -3.295  0.1221E-01  0.2000E+02
  -3.285  0.1291E-01  0.2000E+02
  -3.275  0.1364E-01  0.2000E+02
  -3.265  0.1441E-01  0.2000E+02
  -3.255  0.1522E-01  0.2000E+02
  -3.245  0.1606E-01  0.2000E+02
  -3.235  0.1693E-01  0.2000E+02
  -3.225  0.1785E-01  0.2000E+02
  -3.215  0.1881E-01  0.2000E+02
  -3.205  0.1980E-01  0.2000E+02
  -3.195  0.2084E-01  0.2000E+02
  -3.185  0.2192E-01  0.2000E+02
  -3.175  0.2304E-01  0.2000E+02
  -3.165  0.2421E-01  0.2000E+02
  -3.155  0.2543E-01  0.2000E+02
  -3.145  0.2669E-01  0.2000E+02
  -3.135  0.2800E-01  0.2001E+02
  -3.125  0.2936E-01  0.2001E+02
  -3.115  0.3077E-01  0.2001E+02
  -3.105  0.3223E-01  0.2001E+02
  -3.095  0.3375E-01  0.2001E+02
  -3.085  0.3531E-01  0.2001E+02
  -3.075  0.3694E-01  0.2001E+02
  -3.065  0.3861E-01  0.2001E+02
  -3.055  0.4034E-01  0.2001E+02
  -3.045  0.4213E-01  0.2001E+02
  -3.035  0.4398E-01  0.2001E+02
  -3.025  0.4588E-01  0.2001E+02
  -3.015  0.4785E-01  0.2001E+02
  -3.005  0.4987E-01  0.2001E+02
  -2.995  0.5195E-01  0.2001E+02
  -2.985  0.5410E-01  0.2001E+02
  -2.975  0.5630E-01  0.2001E+02
  -2.965  0.5857E-01  0.2001E+02
  -2.955  0.6090E-01  0.2001E+02
  -2.945  0.6329E-01  0.2001E+02
  -2.935  0.6575E-01  0.2001E+02
  -2.925  0.6827E-01  0.2001E+02
  -2.915  0.7085E-01  0.2002E+02
  -2.905  0.7350E-01  0.2002E+02
  -2.895  0.7621E-01  0.2002E+02
  -2.885  0.7898E-01  0.2002E+02
  -2.875  0.8182E-01  0.2002E+02
  -2.865  0.8472E-01  0.2002E+02
  -2.855  0.8769E-01  0.2002E+02
  -2.845  0.9072E-01  0.2002E+02
  -2.835  0.9381E-01  0.2002E+02
  -2.825  0.9697E-01  0.2002E+02
  -2.815  0.1002E+00  0.2002E+02
  -2.805  0.1035E+00  0.2003E+02
  -2.795  0.1068E+00  0.2003E+02
  -2.785  0.1102E+00  0.2003E+02
  -2.775  0.1137E+00  0.2003E+02
  -2.765  0.1172E+00  0.2003E+02
  -2.755  0.1208E+00  0.2003E+02
  -2.745  0.1244E+00  0.2003E+02
  -2.735  0.1281E+00  0.2003E+02
  -2.725  0.1319E+00  0.2003E+02
  -2.715  0.1357E+00  0.2004E+02
  -2.705  0.1396E+00  0.2004E+02
  -2.695  0.1435E+00  0.2004E+02
  -2.685  0.1475E+00  0.2004E+02
  -2.675  0.1515E+00  0.2004E+02
  -2.665  0.1556E+00  0.2004E+02
  -2.655  0.1597E+00  0.2005E+02
  -2.645  0.1639E+00  0.2005E+02
  -2.635  0.1681E+00  0.2005E+02
  -2.625  0.1724E+00  0.2005E+02
  -2.615  0.1767E+00  0.2005E+02
  -2.605  0.1810E+00  0.2005E+02
  -2.595  0.1854E+00  0.2006E+02
  -2.585  0.1898E+00  0.2006E+02
  -2.575  0.1943E+00  0.2006E+02
  -2.565  0.1988E+00  0.2006E+02
  -2.555  0.2034E+00  0.2006E+02
  -2.545  0.2080E+00  0.2007E+02
  -2.535  0.2126E+00  0.2007E+02
  -2.525  0.2172E+00  0.2007E+02
  -2.515  0.2219E+00  0.2007E+02
  -2.505  0.2266E+00  0.2007E+02
  -2.495  0.2313E+00  0.2008E+02
  -2.485  0.2361E+00  0.2008E+02
  -2.475  0.2409E+00  0.2008E+02
  -2.465  0.2457E+00  0.2008E+02
  -2.455  0.2505E+00  0.2009E+02
  -2.445  0.2553E+00  0.2009E+02
  -2.435  0.2602E+00  0.2009E+02
  -2.425  0.2651E+00  0.2009E+02
  -2.415  0.2700E+00  0.2010E+02
  -2.405  0.2749E+00  0.2010E+02
  -2.395  0.2798E+00  0.2010E+02
  -2.385  0.2847E+00  0.2011E+02
  -2.375  0.2897E+00  0.2011E+02
  -2.365  0.2946E+00  0.2011E+02
  -2.355  0.2996E+00  0.2011E+02
  -2.345  0.3046E+00  0.2012E+02
  -2.335  0.3096E+00  0.2012E+02
  -2.325  0.3146E+00  0.2012E+02
  -2.315  0.3195E+00  0.2013E+02
  -2.305  0.3245E+00  0.2013E+02
  -2.295  0.3295E+00  0.2013E+02
  -2.285  0.3345E+00  0.2014E+02
  -2.275  0.3396E+00  0.2014E+02
  -2.265  0.3446E+00  0.2014E+02
  -2.255  0.3496E+00  0.2015E+02
  -2.245  0.3546E+00  0.2015E+02
  -2.235  0.3596E+00  0.2015E+02
  -2.225  0.3646E+00  0.2016E+02
  -2.215  0.3696E+00  0.2016E+02
  -2.205  0.3746E+00  0.2017E+02
  -2.195  0.3796E+00  0.2017E+02
  -2.185  0.3846E+00  0.2017E+02
  -2.175  0.3896E+00  0.2018E+02
  -2.165  0.3946E+00  0.2018E+02
  -2.155  0.3996E+00  0.2018E+02
  -2.145  0.4046E+00  0.2019E+02
  -2.135  0.4096E+00  0.2019E+02
  -2.125  0.4146E+00  0.2020E+02
  -2.115  0.4196E+00  0.2020E+02
  -2.105  0.4246E+00  0.2021E+02
  -2.095  0.4295E+00  0.2021E+02
  -2.085  0.4345E+00  0.2021E+02
  -2.075  0.4395E+00  0.2022E+02
  -2.065  0.4445E+00  0.2022E+02
  -2.055  0.4495E+00  0.2023E+02
  -2.045  0.4544E+00  0.2023E+02
  -2.035  0.4594E+00  0.2024E+02
  -2.025  0.4644E+00  0.2024E+02
  -2.015  0.4694E+00  0.2025E+02
  -2.005  0.4744E+00  0.2025E+02
  -1.995  0.4794E+00  0.2026E+02
  -1.985  0.4843E+00  0.2026E+02
  -1.975  0.4893E+00  0.2027E+02
  -1.965  0.4943E+00  0.2027E+02
  -1.955  0.4993E+00  0.2027E+02
  -1.945  0.5043E+00  0.2028E+02
  -1.935  0.5093E+00  0.2029E+02
  -1.925  0.5144E+00  0.2029E+02
  -1.915  0.5194E+00  0.2030E+02
  -1.905  0.5244E+00  0.2030E+02
  -1.895  0.5295E+00  0.2031E+02
  -1.885  0.5345E+00  0.2031E+02
  -1.875  0.5396E+00  0.2032E+02
  -1.865  0.5446E+00  0.2032E+02
  -1.855  0.5497E+00  0.2033E+02
  -1.845  0.5548E+00  0.2033E+02
  -1.835  0.5599E+00  0.2034E+02
  -1.825  0.5650E+00  0.2034E+02
  -1.815  0.5701E+00  0.2035E+02
  -1.805  0.5753E+00  0.2036E+02
  -1.795  0.5804E+00  0.2036E+02
  -1.785  0.5856E+00  0.2037E+02
  -1.775  0.5907E+00  0.2037E+02
  -1.765  0.5959E+00  0.2038E+02
  -1.755  0.6011E+00  0.2039E+02
  -1.745  0.6064E+00  0.2039E+02
  -1.735  0.6116E+00  0.2040E+02
  -1.725  0.6168E+00  0.2040E+02
  -1.715  0.6221E+00  0.2041E+02
  -1.705  0.6274E+00  0.2042E+02
  -1.695  0.6327E+00  0.2042E+02
  -1.685  0.6380E+00  0.2043E+02
  -1.675  0.6433E+00  0.2044E+02
  -1.665  0.6486E+00  0.2044E+02
  -1.655  0.6540E+00  0.2045E+02
  -1.645  0.6593E+00  0.2046E+02
  -1.635  0.6647E+00  0.2046E+02
  -1.625  0.6701E+00  0.2047E+02
  -1.615  0.6755E+00  0.2048E+02
  -1.605  0.6809E+00  0.2048E+02
  -1.595  0.6863E+00  0.2049E+02
  -1.585  0.6917E+00  0.2050E+02
  -1.575  0.6971E+00  0.2050E+02
  -1.565  0.7026E+00  0.2051E+02
  -1.555  0.7080E+00  0.2052E+02
  -1.545  0.7135E+00  0.2052E+02
  -1.535  0.7189E+00  0.2053E+02
  -1.525  0.7244E+00  0.2054E+02
  -1.515  0.7298E+00  0.2055E+02
  -1.505  0.7352E+00  0.2055E+02
  -1.495  0.7407E+00  0.2056E+02
  -1.485  0.7461E+00  0.2057E+02
  -1.475  0.7515E+00  0.2058E+02
  -1.465  0.7569E+00  0.2058E+02
  -1.455  0.7623E+00  0.2059E+02
  -1.445  0.7677E+00  0.2060E+02
  -1.435  0.7731E+00  0.2061E+02
  -1.425  0.7784E+00  0.2061E+02
  -1.415  0.7838E+00  0.2062E+02
  -1.405  0.7891E+00  0.2063E+02
  -1.395  0.7943E+00  0.2064E+02
  -1.385  0.7996E+00  0.2065E+02
  -1.375  0.8048E+00  0.2065E+02
  -1.365  0.8100E+00  0.2066E+02
  -1.355  0.8151E+00  0.2067E+02
  -1.345  0.8202E+00  0.2068E+02
  -1.335  0.8252E+00  0.2069E+02
  -1.325  0.8302E+00  0.2069E+02
  -1.315  0.8352E+00  0.2070E+02
  -1.305  0.8401E+00  0.2071E+02
  -1.295  0.8449E+00  0.2072E+02
  -1.285  0.8497E+00  0.2073E+02
  -1.275  0.8544E+00  0.2074E+02
  -1.265  0.8591E+00  0.2075E+02
  -1.255  0.8636E+00  0.2075E+02
  -1.245  0.8681E+00  0.2076E+02
  -1.235  0.8726E+00  0.2077E+02
  -1.225  0.8769E+00  0.2078E+02
  -1.215  0.8812E+00  0.2079E+02
  -1.205  0.8853E+00  0.2080E+02
  -1.195  0.8894E+00  0.2081E+02
  -1.185  0.8934E+00  0.2082E+02
  -1.175  0.8973E+00  0.2082E+02
  -1.165  0.9011E+00  0.2083E+02
  -1.155  0.9048E+00  0.2084E+02
  -1.145  0.9084E+00  0.2085E+02
  -1.135  0.9119E+00  0.2086E+02
  -1.125  0.9153E+00  0.2087E+02
  -1.115  0.9185E+00  0.2088E+02
  -1.105  0.9217E+00  0.2089E+02
  -1.095  0.9247E+00  0.2090E+02
  -1.085  0.9276E+00  0.2091E+02
  -1.075  0.9304E+00  0.2092E+02
  -1.065  0.9330E+00  0.2093E+02
  -1.055  0.9355E+00  0.2093E+02
  -1.045  0.9379E+00  0.2094E+02
  -1.035  0.9402E+00  0.2095E+02
  -1.025  0.9423E+00  0.2096E+02
  -1.015  0.9442E+00  0.2097E+02
  -1.005  0.9461E+00  0.2098E+02
  -0.995  0.9478E+00  0.2099E+02
  -0.985  0.9493E+00  0.2100E+02
  -0.975  0.9507E+00  0.2101E+02
  -0.965  0.9520E+00  0.2102E+02
  -0.955  0.9531E+00  0.2103E+02
  -0.945  0.9541E+00  0.2104E+02
  -0.935  0.9549E+00  0.2105E+02
  -0.925  0.9556E+00  0.2106E+02
  -0.915  0.9561E+00  0.2107E+02
  -0.905  0.9565E+00  0.2108E+02
  -0.895  0.9567E+00  0.2109E+02
  -0.885  0.9568E+00  0.2110E+02
  -0.875  0.9567E+00  0.2111E+02
  -0.865  0.9565E+00  0.2112E+02
  -0.855  0.9561E+00  0.2113E+02
  -0.845  0.9555E+00  0.2113E+02
  -0.835  0.9549E+00  0.2114E+02
  -0.825  0.9540E+00  0.2115E+02
  -0.815  0.9530E+00  0.2116E+02
  -0.805  0.9519E+00  0.2117E+02
  -0.795  0.9506E+00  0.2118E+02
  -0.785  0.9492E+00  0.2119E+02
  -0.775  0.9476E+00  0.2120E+02
  -0.765  0.9459E+00  0.2121E+02
  -0.755  0.9440E+00  0.2122E+02
  -0.745  0.9420E+00  0.2123E+02
  -0.735  0.9398E+00  0.2124E+02
  -0.725  0.9375E+00  0.2125E+02
  -0.715  0.9351E+00  0.2126E+02
  -0.705  0.9325E+00  0.2127E+02
  -0.695  0.9298E+00  0.2128E+02
  -0.685  0.9270E+00  0.2129E+02
  -0.675  0.9240E+00  0.2129E+02
  -0.665  0.9209E+00  0.2130E+02
  -0.655  0.9177E+00  0.2131E+02
  -0.645  0.9143E+00  0.2132E+02
  -0.635  0.9109E+00  0.2133E+02
  -0.625  0.9073E+00  0.2134E+02
  -0.615  0.9035E+00  0.2135E+02
  -0.605  0.8997E+00  0.2136E+02
  -0.595  0.8958E+00  0.2137E+02
  -0.585  0.8917E+00  0.2138E+02
  -0.575  0.8875E+00  0.2139E+02
  -0.565  0.8832E+00  0.2139E+02
  -0.555  0.8789E+00  0.2140E+02
  -0.545  0.8744E+00  0.2141E+02
  -0.535  0.8698E+00  0.2142E+02
  -0.525  0.8651E+00  0.2143E+02
  -0.515  0.8603E+00  0.2144E+02
  -0.505  0.8554E+00  0.2145E+02
  -0.495  0.8505E+00  0.2145E+02
  -0.485  0.8454E+00  0.2146E+02
  -0.475  0.8403E+00  0.2147E+02
  -0.465  0.8350E+00  0.2148E+02
  -0.455  0.8297E+00  0.2149E+02
  -0.445  0.8243E+00  0.2150E+02
  -0.435  0.8189E+00  0.2150E+02
  -0.425  0.8133E+00  0.2151E+02
  -0.415  0.8077E+00  0.2152E+02
  -0.405  0.8021E+00  0.2153E+02
  -0.395  0.7963E+00  0.2154E+02
  -0.385  0.7905E+00  0.2154E+02
  -0.375  0.7846E+00  0.2155E+02
  -0.365  0.7787E+00  0.2156E+02
  -0.355  0.7727E+00  0.2157E+02
  -0.345  0.7667E+00  0.2158E+02
  -0.335  0.7606E+00  0.2158E+02
  -0.325  0.7545E+00  0.2159E+02
  -0.315  0.7483E+00  0.2160E+02
  -0.305  0.7421E+00  0.2161E+02
  -0.295  0.7358E+00  0.2161E+02
  -0.285  0.7295E+00  0.2162E+02
  -0.275  0.7232E+00  0.2163E+02
  -0.265  0.7168E+00  0.2164E+02
  -0.255  0.7104E+00  0.2164E+02
  -0.245  0.7040E+00  0.2165E+02
  -0.235  0.6975E+00  0.2166E+02
  -0.225  0.6910E+00  0.2166E+02
  -0.215  0.6845E+00  0.2167E+02
  -0.205  0.6780E+00  0.2168E+02
  -0.195  0.6715E+00  0.2168E+02
  -0.185  0.6650E+00  0.2169E+02
  -0.175  0.6584E+00  0.2170E+02
  -0.165  0.6519E+00  0.2170E+02
  -0.155  0.6453E+00  0.2171E+02
  -0.145  0.6388E+00  0.2172E+02
  -0.135  0.6322E+00  0.2172E+02
  -0.125  0.6257E+00  0.2173E+02
  -0.115  0.6191E+00  0.2173E+02
  -0.105  0.6126E+00  0.2174E+02
  -0.095  0.6061E+00  0.2175E+02
  -0.085  0.5996E+00  0.2175E+02
  -0.075  0.5932E+00  0.2176E+02
  -0.065  0.5867E+00  0.2176E+02
  -0.055  0.5803E+00  0.2177E+02
  -0.045  0.5740E+00  0.2178E+02
  -0.035  0.5676E+00  0.2178E+02
  -0.025  0.5613E+00  0.2179E+02
  -0.015  0.5551E+00  0.2179E+02
  -0.005  0.5489E+00  0.2180E+02
   0.005  0.5427E+00  0.2180E+02
   0.015  0.5366E+00  0.2181E+02
   0.025  0.5306E+00  0.2181E+02
   0.035  0.5246E+00  0.2182E+02
   0.045  0.5187E+00  0.2183E+02
   0.055  0.5128E+00  0.2183E+02
   0.065  0.5071E+00  0.2184E+02
   0.075  0.5014E+00  0.2184E+02
   0.085  0.4957E+00  0.2185E+02
   0.095  0.4902E+00  0.2185E+02
   0.105  0.4847E+00  0.2186E+02
   0.115  0.4794E+00  0.2186E+02
   0.125  0.4741E+00  0.2186E+02
   0.135  0.4689E+00  0.2187E+02
   0.145  0.4639E+00  0.2187E+02
   0.155  0.4589E+00  0.2188E+02
   0.165  0.4541E+00  0.2188E+02
   0.175  0.4493E+00  0.2189E+02
   0.185  0.4447E+00  0.2189E+02
   0.195  0.4402E+00  0.2190E+02
   0.205  0.4358E+00  0.2190E+02
   0.215  0.4316E+00  0.2191E+02
   0.225  0.4274E+00  0.2191E+02
   0.235  0.4234E+00  0.2191E+02
   0.245  0.4196E+00  0.2192E+02
   0.255  0.4159E+00  0.2192E+02
   0.265  0.4123E+00  0.2193E+02
   0.275  0.4089E+00  0.2193E+02
   0.285  0.4056E+00  0.2193E+02
   0.295  0.4024E+00  0.2194E+02
   0.305  0.3995E+00  0.2194E+02
   0.315  0.3966E+00  0.2195E+02
   0.325  0.3940E+00  0.2195E+02
   0.335  0.3915E+00  0.2195E+02
   0.345  0.3891E+00  0.2196E+02
   0.355  0.3869E+00  0.2196E+02
   0.365  0.3849E+00  0.2197E+02
   0.375  0.3831E+00  0.2197E+02
   0.385  0.3814E+00  0.2197E+02
   0.395  0.3799E+00  0.2198E+02
   0.405  0.3786E+00  0.2198E+02
   0.415  0.3774E+00  0.2198E+02
   0.425  0.3764E+00  0.2199E+02
   0.435  0.3756E+00  0.2199E+02
   0.445  0.3750E+00  0.2200E+02
   0.455  0.3746E+00  0.2200E+02
   0.465  0.3743E+00  0.2200E+02
   0.475  0.3742E+00  0.2201E+02
   0.485  0.3743E+00  0.2201E+02
   0.495  0.3746E+00  0.2201E+02
   0.505  0.3750E+00  0.2202E+02
   0.515  0.3756E+00  0.2202E+02
   0.525  0.3764E+00  0.2203E+02
   0.535  0.3774E+00  0.2203E+02
   0.545  0.3786E+00  0.2203E+02
   0.555  0.3799E+00  0.2204E+02
   0.565  0.3814E+00  0.2204E+02
   0.575  0.3831E+00  0.2204E+02
   0.585  0.3850E+00  0.2205E+02
   0.595  0.3870E+00  0.2205E+02
   0.605  0.3892E+00  0.2206E+02
   0.615  0.3916E+00  0.2206E+02
   0.625  0.3941E+00  0.2206E+02
   0.635  0.3968E+00  0.2207E+02
   0.645  0.3997E+00  0.2207E+02
   0.655  0.4027E+00  0.2208E+02
   0.665  0.4059E+00  0.2208E+02
   0.675  0.4093E+00  0.2208E+02
   0.685  0.4128E+00  0.2209E+02
   0.695  0.4164E+00  0.2209E+02
   0.705  0.4202E+00  0.2210E+02
   0.715  0.4242E+00  0.2210E+02
   0.725  0.4282E+00  0.2211E+02
   0.735  0.4325E+00  0.2211E+02
   0.745  0.4368E+00  0.2211E+02
   0.755  0.4413E+00  0.2212E+02
   0.765  0.4460E+00  0.2212E+02
   0.775  0.4507E+00  0.2213E+02
   0.785  0.4556E+00  0.2213E+02
   0.795  0.4607E+00  0.2214E+02
   0.805  0.4658E+00  0.2214E+02
   0.815  0.4710E+00  0.2215E+02
   0.825  0.4764E+00  0.2215E+02
   0.835  0.4818E+00  0.2216E+02
   0.845  0.4874E+00  0.2216E+02
   0.855  0.4931E+00  0.2217E+02
   0.865  0.4989E+00  0.2217E+02
   0.875  0.5047E+00  0.2218E+02
   0.885  0.5107E+00  0.2218E+02
   0.895  0.5167E+00  0.2219E+02
   0.905  0.5228E+00  0.2219E+02
   0.915  0.5290E+00  0.2220E+02
   0.925  0.5353E+00  0.2220E+02
   0.935  0.5416E+00  0.2221E+02
   0.945  0.5480E+00  0.2221E+02
   0.955  0.5544E+00  0.2222E+02
   0.965  0.5609E+00  0.2222E+02
   0.975  0.5675E+00  0.2223E+02
   0.985  0.5741E+00  0.2224E+02
   0.995  0.5808E+00  0.2224E+02
   1.005  0.5875E+00  0.2225E+02
   1.015  0.5942E+00  0.2225E+02
   1.025  0.6009E+00  0.2226E+02
   1.035  0.6077E+00  0.2226E+02
   1.045  0.6145E+00  0.2227E+02
   1.055  0.6213E+00  0.2228E+02
   1.065  0.6281E+00  0.2228E+02
   1.075  0.6350E+00  0.2229E+02
   1.085  0.6418E+00  0.2230E+02
   1.095  0.6486E+00  0.2230E+02
   1.105  0.6554E+00  0.2231E+02
   1.115  0.6622E+00  0.2232E+02
   1.125  0.6690E+00  0.2232E+02
   1.135  0.6758E+00  0.2233E+02
   1.145  0.6825E+00  0.2234E+02
   1.155  0.6892E+00  0.2234E+02
   1.165  0.6958E+00  0.2235E+02
   1.175  0.7024E+00  0.2236E+02
   1.185  0.7090E+00  0.2236E+02
   1.195  0.7155E+00  0.2237E+02
   1.205  0.7219E+00  0.2238E+02
   1.215  0.7283E+00  0.2239E+02
   1.225  0.7346E+00  0.2239E+02
   1.235  0.7409E+00  0.2240E+02
   1.245  0.7470E+00  0.2241E+02
   1.255  0.7531E+00  0.2242E+02
   1.265  0.7591E+00  0.2242E+02
   1.275  0.7649E+00  0.2243E+02
   1.285  0.7707E+00  0.2244E+02
   1.295  0.7764E+00  0.2245E+02
   1.305  0.7820E+00  0.2245E+02
   1.315  0.7874E+00  0.2246E+02
   1.325  0.7927E+00  0.2247E+02
   1.335  0.7979E+00  0.2248E+02
   1.345  0.8030E+00  0.2249E+02
   1.355  0.8080E+00  0.2249E+02
   1.365  0.8128E+00  0.2250E+02
   1.375  0.8174E+00  0.2251E+02
   1.385  0.8219E+00  0.2252E+02
   1.395  0.8263E+00  0.2253E+02
   1.405  0.8305E+00  0.2254E+02
   1.415  0.8345E+00  0.2254E+02
   1.425  0.8384E+00  0.2255E+02
   1.435  0.8421E+00  0.2256E+02
   1.445  0.8457E+00  0.2257E+02
   1.455  0.8491E+00  0.2258E+02
   1.465  0.8523E+00  0.2259E+02
   1.475  0.8553E+00  0.2259E+02
   1.485  0.8581E+00  0.2260E+02
   1.495  0.8608E+00  0.2261E+02
   1.505  0.8632E+00  0.2262E+02
   1.515  0.8655E+00  0.2263E+02
   1.525  0.8676E+00  0.2264E+02
   1.535  0.8695E+00  0.2265E+02
   1.545  0.8712E+00  0.2265E+02
   1.555  0.8726E+00  0.2266E+02
   1.565  0.8739E+00  0.2267E+02
   1.575  0.8751E+00  0.2268E+02
   1.585  0.8760E+00  0.2269E+02
   1.595  0.8767E+00  0.2270E+02
   1.605  0.8772E+00  0.2271E+02
   1.615  0.8775E+00  0.2272E+02
   1.625  0.8776E+00  0.2272E+02
   1.635  0.8775E+00  0.2273E+02
   1.645  0.8772E+00  0.2274E+02
   1.655  0.8767E+00  0.2275E+02
   1.665  0.8760E+00  0.2276E+02
   1.675  0.8752E+00  0.2277E+02
   1.685  0.8741E+00  0.2278E+02
   1.695  0.8728E+00  0.2279E+02
   1.705  0.8714E+00  0.2279E+02
   1.715  0.8698E+00  0.2280E+02
   1.725  0.8680E+00  0.2281E+02
   1.735  0.8660E+00  0.2282E+02
   1.745  0.8638E+00  0.2283E+02
   1.755  0.8615E+00  0.2284E+02
   1.765  0.8590E+00  0.2285E+02
   1.775  0.8563E+00  0.2286E+02
   1.785  0.8534E+00  0.2286E+02
   1.795  0.8504E+00  0.2287E+02
   1.805  0.8473E+00  0.2288E+02
   1.815  0.8440E+00  0.2289E+02
   1.825  0.8405E+00  0.2290E+02
   1.835  0.8369E+00  0.2291E+02
   1.845  0.8332E+00  0.2291E+02
   1.855  0.8293E+00  0.2292E+02
   1.865  0.8253E+00  0.2293E+02
   1.875  0.8211E+00  0.2294E+02
   1.885  0.8169E+00  0.2295E+02
   1.895  0.8125E+00  0.2296E+02
   1.905  0.8081E+00  0.2296E+02
   1.915  0.8035E+00  0.2297E+02
   1.925  0.7988E+00  0.2298E+02
   1.935  0.7940E+00  0.2299E+02
   1.945  0.7892E+00  0.2300E+02
   1.955  0.7842E+00  0.2300E+02
   1.965  0.7792E+00  0.2301E+02
   1.975  0.7741E+00  0.2302E+02
   1.985  0.7689E+00  0.2303E+02
   1.995  0.7637E+00  0.2303E+02
   2.005  0.7584E+00  0.2304E+02
   2.015  0.7531E+00  0.2305E+02
   2.025  0.7477E+00  0.2306E+02
   2.035  0.7422E+00  0.2306E+02
   2.045  0.7367E+00  0.2307E+02
   2.055  0.7312E+00  0.2308E+02
   2.065  0.7257E+00  0.2309E+02
   2.075  0.7201E+00  0.2309E+02
   2.085  0.7145E+00  0.2310E+02
   2.095  0.7089E+00  0.2311E+02
   2.105  0.7033E+00  0.2311E+02
   2.115  0.6976E+00  0.2312E+02
   2.125  0.6920E+00  0.2313E+02
   2.135  0.6863E+00  0.2314E+02
   2.145  0.6807E+00  0.2314E+02
   2.155  0.6750E+00  0.2315E+02
   2.165  0.6694E+00  0.2316E+02
   2.175  0.6638E+00  0.2316E+02
   2.185  0.6582E+00  0.2317E+02
   2.195  0.6526E+00  0.2318E+02
   2.205  0.6470E+00  0.2318E+02
   2.215  0.6415E+00  0.2319E+02
   2.225  0.6359E+00  0.2319E+02
   2.235  0.6304E+00  0.2320E+02
   2.245  0.6250E+00  0.2321E+02
   2.255  0.6196E+00  0.2321E+02
   2.265  0.6142E+00  0.2322E+02
   2.275  0.6088E+00  0.2323E+02
   2.285  0.6035E+00  0.2323E+02
   2.295  0.5982E+00  0.2324E+02
   2.305  0.5930E+00  0.2324E+02
   2.315  0.5878E+00  0.2325E+02
   2.325  0.5826E+00  0.2326E+02
   2.335  0.5775E+00  0.2326E+02
   2.345  0.5725E+00  0.2327E+02
   2.355  0.5675E+00  0.2327E+02
   2.365  0.5625E+00  0.2328E+02
   2.375  0.5576E+00  0.2328E+02
   2.385  0.5527E+00  0.2329E+02
   2.395  0.5479E+00  0.2329E+02
   2.405  0.5432E+00  0.2330E+02
   2.415  0.5385E+00  0.2331E+02
   2.425  0.5338E+00  0.2331E+02
   2.435  0.5292E+00  0.2332E+02
   2.445  0.5247E+00  0.2332E+02
   2.455  0.5202E+00  0.2333E+02
   2.465  0.5157E+00  0.2333E+02
   2.475  0.5113E+00  0.2334E+02
   2.485  0.5070E+00  0.2334E+02
   2.495  0.5027E+00  0.2335E+02
   2.505  0.4984E+00  0.2335E+02
   2.515  0.4943E+00  0.2336E+02
   2.525  0.4901E+00  0.2336E+02
   2.535  0.4860E+00  0.2337E+02
   2.545  0.4820E+00  0.2337E+02
   2.555  0.4780E+00  0.2338E+02
   2.565  0.4741E+00  0.2338E+02
   2.575  0.4702E+00  0.2339E+02
   2.585  0.4663E+00  0.2339E+02
   2.595  0.4626E+00  0.2339E+02
   2.605  0.4588E+00  0.2340E+02
   2.615  0.4551E+00  0.2340E+02
   2.625  0.4515E+00  0.2341E+02
   2.635  0.4478E+00  0.2341E+02
   2.645  0.4443E+00  0.2342E+02
   2.655  0.4408E+00  0.2342E+02
   2.665  0.4373E+00  0.2343E+02
   2.675  0.4338E+00  0.2343E+02
   2.685  0.4305E+00  0.2343E+02
   2.695  0.4271E+00  0.2344E+02
   2.705  0.4238E+00  0.2344E+02
   2.715  0.4205E+00  0.2345E+02
   2.725  0.4173E+00  0.2345E+02
   2.735  0.4141E+00  0.2346E+02
   2.745  0.4109E+00  0.2346E+02
   2.755  0.4078E+00  0.2346E+02
   2.765  0.4047E+00  0.2347E+02
   2.775  0.4017E+00  0.2347E+02
   2.785  0.3986E+00  0.2348E+02
   2.795  0.3957E+00  0.2348E+02
   2.805  0.3927E+00  0.2348E+02
   2.815  0.3898E+00  0.2349E+02
   2.825  0.3869E+00  0.2349E+02
   2.835  0.3841E+00  0.2350E+02
   2.845  0.3812E+00  0.2350E+02
   2.855  0.3785E+00  0.2350E+02
   2.865  0.3757E+00  0.2351E+02
   2.875  0.3730E+00  0.2351E+02
   2.885  0.3703E+00  0.2351E+02
   2.895  0.3676E+00  0.2352E+02
   2.905  0.3649E+00  0.2352E+02
   2.915  0.3623E+00  0.2353E+02
   2.925  0.3597E+00  0.2353E+02
   2.935  0.3572E+00  0.2353E+02
   2.945  0.3546E+00  0.2354E+02
   2.955  0.3521E+00  0.2354E+02
   2.965  0.3496E+00  0.2354E+02
   2.975  0.3471E+00  0.2355E+02
   2.985  0.3447E+00  0.2355E+02
   2.995  0.3423E+00  0.2355E+02
   3.005  0.3399E+00  0.2356E+02
   3.015  0.3375E+00  0.2356E+02
   3.025  0.3352E+00  0.2356E+02
   3.035  0.3328E+00  0.2357E+02
   3.045  0.3305E+00  0.2357E+02
   3.055  0.3282E+00  0.2357E+02
   3.065  0.3260E+00  0.2358E+02
   3.075  0.3237E+00  0.2358E+02
   3.085  0.3215E+00  0.2358E+02
   3.095  0.3193E+00  0.2359E+02
   3.105  0.3171E+00  0.2359E+02
   3.115  0.3150E+00  0.2359E+02
   3.125  0.3128E+00  0.2360E+02
   3.135  0.3107E+00  0.2360E+02
   3.145  0.3086E+00  0.2360E+02
   3.155  0.3065E+00  0.2361E+02
   3.165  0.3045E+00  0.2361E+02
   3.175  0.3024E+00  0.2361E+02
   3.185  0.3004E+00  0.2361E+02
   3.195  0.2984E+00  0.2362E+02
   3.205  0.2964E+00  0.2362E+02
   3.215  0.2944E+00  0.2362E+02
   3.225  0.2925E+00  0.2363E+02
   3.235  0.2906E+00  0.2363E+02
   3.245  0.2887E+00  0.2363E+02
   3.255  0.2868E+00  0.2363E+02
   3.265  0.2849E+00  0.2364E+02
   3.275  0.2831E+00  0.2364E+02
   3.285  0.2812E+00  0.2364E+02
   3.295  0.2794E+00  0.2365E+02
   3.305  0.2777E+00  0.2365E+02
   3.315  0.2759E+00  0.2365E+02
   3.325  0.2742E+00  0.2365E+02
   3.335  0.2724E+00  0.2366E+02
   3.345  0.2707E+00  0.2366E+02
   3.355  0.2691E+00  0.2366E+02
   3.365  0.2674E+00  0.2366E+02
   3.375  0.2658E+00  0.2367E+02
   3.385  0.2642E+00  0.2367E+02
   3.395  0.2626E+00  0.2367E+02
   3.405  0.2611E+00  0.2368E+02
   3.415  0.2596E+00  0.2368E+02
   3.425  0.2581E+00  0.2368E+02
   3.435  0.2566E+00  0.2368E+02
   3.445  0.2552E+00  0.2369E+02
   3.455  0.2538E+00  0.2369E+02
   3.465  0.2524E+00  0.2369E+02
   3.475  0.2511E+00  0.2369E+02
   3.485  0.2498E+00  0.2370E+02
   3.495  0.2485E+00  0.2370E+02
   3.505  0.2473E+00  0.2370E+02
   3.515  0.2461E+00  0.2370E+02
   3.525  0.2450E+00  0.2371E+02
   3.535  0.2439E+00  0.2371E+02
   3.545  0.2428E+00  0.2371E+02
   3.555  0.2418E+00  0.2371E+02
   3.565  0.2409E+00  0.2372E+02
   3.575  0.2399E+00  0.2372E+02
   3.585  0.2391E+00  0.2372E+02
   3.595  0.2383E+00  0.2372E+02
   3.605  0.2375E+00  0.2372E+02
   3.615  0.2369E+00  0.2373E+02
   3.625  0.2362E+00  0.2373E+02
   3.635  0.2357E+00  0.2373E+02
   3.645  0.2352E+00  0.2373E+02
   3.655  0.2348E+00  0.2374E+02
   3.665  0.2344E+00  0.2374E+02
   3.675  0.2342E+00  0.2374E+02
   3.685  0.2340E+00  0.2374E+02
   3.695  0.2339E+00  0.2375E+02
   3.705  0.2339E+00  0.2375E+02
   3.715  0.2339E+00  0.2375E+02
   3.725  0.2341E+00  0.2375E+02
   3.735  0.2344E+00  0.2376E+02
   3.745  0.2347E+00  0.2376E+02
   3.755  0.2352E+00  0.2376E+02
   3.765  0.2357E+00  0.2376E+02
   3.775  0.2364E+00  0.2376E+02
   3.785  0.2372E+00  0.2377E+02
   3.795  0.2381E+00  0.2377E+02
   3.805  0.2392E+00  0.2377E+02
   3.815  0.2403E+00  0.2377E+02
   3.825  0.2416E+00  0.2378E+02
   3.835  0.2431E+00  0.2378E+02
   3.845  0.2447E+00  0.2378E+02
   3.855  0.2464E+00  0.2378E+02
   3.865  0.2482E+00  0.2379E+02
   3.875  0.2503E+00  0.2379E+02
   3.885  0.2524E+00  0.2379E+02
   3.895  0.2548E+00  0.2379E+02
   3.905  0.2573E+00  0.2380E+02
   3.915  0.2600E+00  0.2380E+02
   3.925  0.2628E+00  0.2380E+02
   3.935  0.2658E+00  0.2380E+02
   3.945  0.2691E+00  0.2381E+02
   3.955  0.2725E+00  0.2381E+02
   3.965  0.2760E+00  0.2381E+02
   3.975  0.2798E+00  0.2382E+02
   3.985  0.2838E+00  0.2382E+02
   3.995  0.2880E+00  0.2382E+02
   4.005  0.2924E+00  0.2382E+02
   4.015  0.2970E+00  0.2383E+02
   4.025  0.3018E+00  0.2383E+02
   4.035  0.3068E+00  0.2383E+02
   4.045  0.3120E+00  0.2384E+02
   4.055  0.3175E+00  0.2384E+02
   4.065  0.3232E+00  0.2384E+02
   4.075  0.3291E+00  0.2385E+02
   4.085  0.3352E+00  0.2385E+02
   4.095  0.3415E+00  0.2385E+02
   4.105  0.3481E+00  0.2386E+02
   4.115  0.3549E+00  0.2386E+02
   4.125  0.3620E+00  0.2386E+02
   4.135  0.3693E+00  0.2387E+02
   4.145  0.3768E+00  0.2387E+02
   4.155  0.3845E+00  0.2387E+02
   4.165  0.3925E+00  0.2388E+02
   4.175  0.4007E+00  0.2388E+02
   4.185  0.4092E+00  0.2389E+02
   4.195  0.4179E+00  0.2389E+02
   4.205  0.4268E+00  0.2390E+02
   4.215  0.4359E+00  0.2390E+02
   4.225  0.4453E+00  0.2390E+02
   4.235  0.4548E+00  0.2391E+02
   4.245  0.4646E+00  0.2391E+02
   4.255  0.4747E+00  0.2392E+02
   4.265  0.4849E+00  0.2392E+02
   4.275  0.4953E+00  0.2393E+02
   4.285  0.5060E+00  0.2393E+02
   4.295  0.5168E+00  0.2394E+02
   4.305  0.5278E+00  0.2394E+02
   4.315  0.5391E+00  0.2395E+02
   4.325  0.5505E+00  0.2395E+02
   4.335  0.5621E+00  0.2396E+02
   4.345  0.5739E+00  0.2397E+02
   4.355  0.5858E+00  0.2397E+02
   4.365  0.5979E+00  0.2398E+02
   4.375  0.6101E+00  0.2398E+02
   4.385  0.6225E+00  0.2399E+02
   4.395  0.6350E+00  0.2400E+02
   4.405  0.6477E+00  0.2400E+02
   4.415  0.6605E+00  0.2401E+02
   4.425  0.6734E+00  0.2402E+02
   4.435  0.6864E+00  0.2402E+02
   4.445  0.6995E+00  0.2403E+02
   4.455  0.7127E+00  0.2404E+02
   4.465  0.7260E+00  0.2404E+02
   4.475  0.7393E+00  0.2405E+02
   4.485  0.7527E+00  0.2406E+02
   4.495  0.7662E+00  0.2407E+02
   4.505  0.7797E+00  0.2407E+02
   4.515  0.7932E+00  0.2408E+02
   4.525  0.8068E+00  0.2409E+02
   4.535  0.8204E+00  0.2410E+02
   4.545  0.8340E+00  0.2411E+02
   4.555  0.8475E+00  0.2412E+02
   4.565  0.8611E+00  0.2412E+02
   4.575  0.8747E+00  0.2413E+02
   4.585  0.8882E+00  0.2414E+02
   4.595  0.9017E+00  0.2415E+02
   4.605  0.9152E+00  0.2416E+02
   4.615  0.9286E+00  0.2417E+02
   4.625  0.9419E+00  0.2418E+02
   4.635  0.9552E+00  0.2419E+02
   4.645  0.9684E+00  0.2420E+02
   4.655  0.9816E+00  0.2421E+02
   4.665  0.9946E+00  0.2422E+02
   4.675  0.1008E+01  0.2423E+02
   4.685  0.1020E+01  0.2424E+02
   4.695  0.1033E+01  0.2425E+02
   4.705  0.1046E+01  0.2426E+02
   4.715  0.1058E+01  0.2427E+02
   4.725  0.1071E+01  0.2428E+02
   4.735  0.1083E+01  0.2429E+02
   4.745  0.1095E+01  0.2430E+02
   4.755  0.1107E+01  0.2431E+02
   4.765  0.1119E+01  0.2432E+02
   4.775  0.1130E+01  0.2434E+02
   4.785  0.1142E+01  0.2435E+02
   4.795  0.1153E+01  0.2436E+02
   4.805  0.1164E+01  0.2437E+02
   4.815  0.1175E+01  0.2438E+02
   4.825  0.1186E+01  0.2439E+02
   4.835  0.1197E+01  0.2441E+02
   4.845  0.1208E+01  0.2442E+02
   4.855  0.1218E+01  0.2443E+02
   4.865  0.1228E+01  0.2444E+02
   4.875  0.1238E+01  0.2445E+02
   4.885  0.1248E+01  0.2447E+02
   4.895  0.1258E+01  0.2448E+02
   4.905  0.1268E+01  0.2449E+02
   4.915  0.1277E+01  0.2451E+02
   4.925  0.1286E+01  0.2452E+02
   4.935  0.1295E+01  0.2453E+02
   4.945  0.1304E+01  0.2454E+02
   4.955  0.1313E+01  0.2456E+02
   4.965  0.1322E+01  0.2457E+02
   4.975  0.1330E+01  0.2458E+02
   4.985  0.1338E+01  0.2460E+02
   4.995  0.1347E+01  0.2461E+02
   5.005  0.1355E+01  0.2462E+02
   5.015  0.1363E+01  0.2464E+02
   5.025  0.1370E+01  0.2465E+02
   5.035  0.1378E+01  0.2467E+02
   5.045  0.1385E+01  0.2468E+02
   5.055  0.1393E+01  0.2469E+02
   5.065  0.1400E+01  0.2471E+02
   5.075  0.1407E+01  0.2472E+02
   5.085  0.1414E+01  0.2474E+02
   5.095  0.1421E+01  0.2475E+02
   5.105  0.1428E+01  0.2476E+02
   5.115  0.1434E+01  0.2478E+02
   5.125  0.1441E+01  0.2479E+02
   5.135  0.1447E+01  0.2481E+02
   5.145  0.1453E+01  0.2482E+02
   5.155  0.1459E+01  0.2484E+02
   5.165  0.1466E+01  0.2485E+02
   5.175  0.1472E+01  0.2487E+02
   5.185  0.1477E+01  0.2488E+02
   5.195  0.1483E+01  0.2489E+02
   5.205  0.1489E+01  0.2491E+02
   5.215  0.1494E+01  0.2492E+02
   5.225  0.1500E+01  0.2494E+02
   5.235  0.1505E+01  0.2495E+02
   5.245  0.1511E+01  0.2497E+02
   5.255  0.1516E+01  0.2499E+02
   5.265  0.1521E+01  0.2500E+02
   5.275  0.1526E+01  0.2502E+02
   5.285  0.1531E+01  0.2503E+02
   5.295  0.1536E+01  0.2505E+02
   5.305  0.1541E+01  0.2506E+02
   5.315  0.1546E+01  0.2508E+02
   5.325  0.1550E+01  0.2509E+02
   5.335  0.1555E+01  0.2511E+02
   5.345  0.1559E+01  0.2512E+02
   5.355  0.1564E+01  0.2514E+02
   5.365  0.1568E+01  0.2516E+02
   5.375  0.1573E+01  0.2517E+02
   5.385  0.1577E+01  0.2519E+02
   5.395  0.1581E+01  0.2520E+02
   5.405  0.1585E+01  0.2522E+02
   5.415  0.1589E+01  0.2523E+02
   5.425  0.1592E+01  0.2525E+02
   5.435  0.1596E+01  0.2527E+02
   5.445  0.1600E+01  0.2528E+02
   5.455  0.1603E+01  0.2530E+02
   5.465  0.1607E+01  0.2531E+02
   5.475  0.1610E+01  0.2533E+02
   5.485  0.1614E+01  0.2535E+02
   5.495  0.1617E+01  0.2536E+02
   5.505  0.1620E+01  0.2538E+02
   5.515  0.1623E+01  0.2539E+02
   5.525  0.1626E+01  0.2541E+02
   5.535  0.1628E+01  0.2543E+02
   5.545  0.1631E+01  0.2544E+02
   5.555  0.1634E+01  0.2546E+02
   5.565  0.1636E+01  0.2548E+02
   5.575  0.1638E+01  0.2549E+02
   5.585  0.1641E+01  0.2551E+02
   5.595  0.1643E+01  0.2553E+02
   5.605  0.1645E+01  0.2554E+02
   5.615  0.1646E+01  0.2556E+02
   5.625  0.1648E+01  0.2558E+02
   5.635  0.1650E+01  0.2559E+02
   5.645  0.1651E+01  0.2561E+02
   5.655  0.1653E+01  0.2562E+02
   5.665  0.1654E+01  0.2564E+02
   5.675  0.1655E+01  0.2566E+02
   5.685  0.1656E+01  0.2567E+02
   5.695  0.1657E+01  0.2569E+02
   5.705  0.1658E+01  0.2571E+02
   5.715  0.1659E+01  0.2572E+02
   5.725  0.1659E+01  0.2574E+02
   5.735  0.1660E+01  0.2576E+02
   5.745  0.1660E+01  0.2577E+02
   5.755  0.1660E+01  0.2579E+02
   5.765  0.1660E+01  0.2581E+02
   5.775  0.1660E+01  0.2582E+02
   5.785  0.1660E+01  0.2584E+02
   5.795  0.1660E+01  0.2586E+02
   5.805  0.1659E+01  0.2587E+02
   5.815  0.1659E+01  0.2589E+02
   5.825  0.1658E+01  0.2591E+02
   5.835  0.1657E+01  0.2592E+02
   5.845  0.1656E+01  0.2594E+02
   5.855  0.1655E+01  0.2596E+02
   5.865  0.1654E+01  0.2597E+02
   5.875  0.1653E+01  0.2599E+02
   5.885  0.1651E+01  0.2601E+02
   5.895  0.1650E+01  0.2602E+02
   5.905  0.1648E+01  0.2604E+02
   5.915  0.1646E+01  0.2606E+02
   5.925  0.1644E+01  0.2607E+02
   5.935  0.1643E+01  0.2609E+02
   5.945  0.1640E+01  0.2610E+02
   5.955  0.1638E+01  0.2612E+02
   5.965  0.1636E+01  0.2614E+02
   5.975  0.1634E+01  0.2615E+02
   5.985  0.1631E+01  0.2617E+02
   5.995  0.1628E+01  0.2619E+02
   6.005  0.1626E+01  0.2620E+02
   6.015  0.1623E+01  0.2622E+02
   6.025  0.1620E+01  0.2623E+02
   6.035  0.1617E+01  0.2625E+02
   6.045  0.1614E+01  0.2627E+02
   6.055  0.1611E+01  0.2628E+02
   6.065  0.1607E+01  0.2630E+02
   6.075  0.1604E+01  0.2632E+02
   6.085  0.1600E+01  0.2633E+02
   6.095  0.1597E+01  0.2635E+02
   6.105  0.1593E+01  0.2636E+02
   6.115  0.1589E+01  0.2638E+02
   6.125  0.1585E+01  0.2640E+02
   6.135  0.1581E+01  0.2641E+02
   6.145  0.1577E+01  0.2643E+02
   6.155  0.1573E+01  0.2644E+02
   6.165  0.1569E+01  0.2646E+02
   6.175  0.1565E+01  0.2647E+02
   6.185  0.1560E+01  0.2649E+02
   6.195  0.1556E+01  0.2650E+02
   6.205  0.1551E+01  0.2652E+02
   6.215  0.1546E+01  0.2654E+02
   6.225  0.1542E+01  0.2655E+02
   6.235  0.1537E+01  0.2657E+02
   6.245  0.1532E+01  0.2658E+02
   6.255  0.1527E+01  0.2660E+02
   6.265  0.1522E+01  0.2661E+02
   6.275  0.1516E+01  0.2663E+02
   6.285  0.1511E+01  0.2664E+02
   6.295  0.1506E+01  0.2666E+02
   6.305  0.1500E+01  0.2667E+02
   6.315  0.1495E+01  0.2669E+02
   6.325  0.1489E+01  0.2670E+02
   6.335  0.1483E+01  0.2672E+02
   6.345  0.1477E+01  0.2673E+02
   6.355  0.1472E+01  0.2675E+02
   6.365  0.1465E+01  0.2676E+02
   6.375  0.1459E+01  0.2678E+02
   6.385  0.1453E+01  0.2679E+02
   6.395  0.1447E+01  0.2681E+02
   6.405  0.1440E+01  0.2682E+02
   6.415  0.1434E+01  0.2683E+02
   6.425  0.1427E+01  0.2685E+02
   6.435  0.1421E+01  0.2686E+02
   6.445  0.1414E+01  0.2688E+02
   6.455  0.1407E+01  0.2689E+02
   6.465  0.1400E+01  0.2690E+02
   6.475  0.1393E+01  0.2692E+02
   6.485  0.1386E+01  0.2693E+02
   6.495  0.1378E+01  0.2695E+02
   6.505  0.1371E+01  0.2696E+02
   6.515  0.1363E+01  0.2697E+02
   6.525  0.1356E+01  0.2699E+02
   6.535  0.1348E+01  0.2700E+02
   6.545  0.1340E+01  0.2701E+02
   6.555  0.1332E+01  0.2703E+02
   6.565  0.1324E+01  0.2704E+02
   6.575  0.1316E+01  0.2705E+02
   6.585  0.1308E+01  0.2707E+02
   6.595  0.1300E+01  0.2708E+02
   6.605  0.1291E+01  0.2709E+02
   6.615  0.1283E+01  0.2711E+02
   6.625  0.1274E+01  0.2712E+02
   6.635  0.1266E+01  0.2713E+02
   6.645  0.1257E+01  0.2714E+02
   6.655  0.1248E+01  0.2716E+02
   6.665  0.1239E+01  0.2717E+02
   6.675  0.1230E+01  0.2718E+02
   6.685  0.1221E+01  0.2719E+02
   6.695  0.1211E+01  0.2720E+02
   6.705  0.1202E+01  0.2722E+02
   6.715  0.1193E+01  0.2723E+02
   6.725  0.1183E+01  0.2724E+02
   6.735  0.1173E+01  0.2725E+02
   6.745  0.1164E+01  0.2726E+02
   6.755  0.1154E+01  0.2728E+02
   6.765  0.1144E+01  0.2729E+02
   6.775  0.1134E+01  0.2730E+02
   6.785  0.1124E+01  0.2731E+02
   6.795  0.1114E+01  0.2732E+02
   6.805  0.1104E+01  0.2733E+02
   6.815  0.1094E+01  0.2734E+02
   6.825  0.1083E+01  0.2735E+02
   6.835  0.1073E+01  0.2736E+02
   6.845  0.1063E+01  0.2737E+02
   6.855  0.1052E+01  0.2739E+02
   6.865  0.1042E+01  0.2740E+02
   6.875  0.1031E+01  0.2741E+02
   6.885  0.1021E+01  0.2742E+02
   6.895  0.1010E+01  0.2743E+02
   6.905  0.9995E+00  0.2744E+02
   6.915  0.9888E+00  0.2745E+02
   6.925  0.9781E+00  0.2746E+02
   6.935  0.9673E+00  0.2747E+02
   6.945  0.9565E+00  0.2748E+02
   6.955  0.9457E+00  0.2748E+02
   6.965  0.9349E+00  0.2749E+02
   6.975  0.9241E+00  0.2750E+02
   6.985  0.9133E+00  0.2751E+02
   6.995  0.9025E+00  0.2752E+02
   7.005  0.8916E+00  0.2753E+02
   7.015  0.8808E+00  0.2754E+02
   7.025  0.8700E+00  0.2755E+02
   7.035  0.8591E+00  0.2756E+02
   7.045  0.8483E+00  0.2757E+02
   7.055  0.8376E+00  0.2757E+02
   7.065  0.8268E+00  0.2758E+02
   7.075  0.8160E+00  0.2759E+02
   7.085  0.8053E+00  0.2760E+02
   7.095  0.7947E+00  0.2761E+02
   7.105  0.7840E+00  0.2761E+02
   7.115  0.7734E+00  0.2762E+02
   7.125  0.7628E+00  0.2763E+02
   7.135  0.7523E+00  0.2764E+02
   7.145  0.7418E+00  0.2764E+02
   7.155  0.7314E+00  0.2765E+02
   7.165  0.7210E+00  0.2766E+02
   7.175  0.7107E+00  0.2767E+02
   7.185  0.7005E+00  0.2767E+02
   7.195  0.6903E+00  0.2768E+02
   7.205  0.6801E+00  0.2769E+02
   7.215  0.6701E+00  0.2769E+02
   7.225  0.6601E+00  0.2770E+02
   7.235  0.6502E+00  0.2771E+02
   7.245  0.6403E+00  0.2771E+02
   7.255  0.6306E+00  0.2772E+02
   7.265  0.6209E+00  0.2773E+02
   7.275  0.6113E+00  0.2773E+02
   7.285  0.6018E+00  0.2774E+02
   7.295  0.5924E+00  0.2774E+02
   7.305  0.5830E+00  0.2775E+02
   7.315  0.5738E+00  0.2775E+02
   7.325  0.5646E+00  0.2776E+02
   7.335  0.5556E+00  0.2777E+02
   7.345  0.5466E+00  0.2777E+02
   7.355  0.5377E+00  0.2778E+02
   7.365  0.5289E+00  0.2778E+02
   7.375  0.5203E+00  0.2779E+02
   7.385  0.5117E+00  0.2779E+02
   7.395  0.5033E+00  0.2780E+02
   7.405  0.4949E+00  0.2780E+02
   7.415  0.4866E+00  0.2781E+02
   7.425  0.4785E+00  0.2781E+02
   7.435  0.4705E+00  0.2782E+02
   7.445  0.4625E+00  0.2782E+02
   7.455  0.4547E+00  0.2783E+02
   7.465  0.4470E+00  0.2783E+02
   7.475  0.4394E+00  0.2783E+02
   7.485  0.4319E+00  0.2784E+02
   7.495  0.4245E+00  0.2784E+02
   7.505  0.4173E+00  0.2785E+02
   7.515  0.4101E+00  0.2785E+02
   7.525  0.4031E+00  0.2786E+02
   7.535  0.3962E+00  0.2786E+02
   7.545  0.3894E+00  0.2786E+02
   7.555  0.3827E+00  0.2787E+02
   7.565  0.3762E+00  0.2787E+02
   7.575  0.3697E+00  0.2787E+02
   7.585  0.3634E+00  0.2788E+02
   7.595  0.3572E+00  0.2788E+02
   7.605  0.3511E+00  0.2789E+02
   7.615  0.3452E+00  0.2789E+02
   7.625  0.3394E+00  0.2789E+02
   7.635  0.3337E+00  0.2790E+02
   7.645  0.3281E+00  0.2790E+02
   7.655  0.3226E+00  0.2790E+02
   7.665  0.3173E+00  0.2791E+02
   7.675  0.3121E+00  0.2791E+02
   7.685  0.3070E+00  0.2791E+02
   7.695  0.3021E+00  0.2791E+02
   7.705  0.2972E+00  0.2792E+02
   7.715  0.2926E+00  0.2792E+02
   7.725  0.2880E+00  0.2792E+02
   7.735  0.2836E+00  0.2793E+02
   7.745  0.2793E+00  0.2793E+02
   7.755  0.2751E+00  0.2793E+02
   7.765  0.2711E+00  0.2793E+02
   7.775  0.2672E+00  0.2794E+02
   7.785  0.2635E+00  0.2794E+02
   7.795  0.2599E+00  0.2794E+02
   7.805  0.2564E+00  0.2794E+02
   7.815  0.2531E+00  0.2795E+02
   7.825  0.2499E+00  0.2795E+02
   7.835  0.2468E+00  0.2795E+02
   7.845  0.2439E+00  0.2795E+02
   7.855  0.2412E+00  0.2796E+02
   7.865  0.2386E+00  0.2796E+02
   7.875  0.2361E+00  0.2796E+02
   7.885  0.2338E+00  0.2796E+02
   7.895  0.2316E+00  0.2797E+02
   7.905  0.2296E+00  0.2797E+02
   7.915  0.2278E+00  0.2797E+02
   7.925  0.2261E+00  0.2797E+02
   7.935  0.2246E+00  0.2798E+02
   7.945  0.2232E+00  0.2798E+02
   7.955  0.2220E+00  0.2798E+02
   7.965  0.2209E+00  0.2798E+02
   7.975  0.2200E+00  0.2798E+02
   7.985  0.2193E+00  0.2799E+02
   7.995  0.2188E+00  0.2799E+02
   8.005  0.2184E+00  0.2799E+02
   8.015  0.2182E+00  0.2799E+02
   8.025  0.2181E+00  0.2800E+02
   8.035  0.2182E+00  0.2800E+02
   8.045  0.2186E+00  0.2800E+02
   8.055  0.2190E+00  0.2800E+02
   8.065  0.2197E+00  0.2800E+02
   8.075  0.2206E+00  0.2801E+02
   8.085  0.2216E+00  0.2801E+02
   8.095  0.2228E+00  0.2801E+02
   8.105  0.2242E+00  0.2801E+02
   8.115  0.2258E+00  0.2802E+02
   8.125  0.2276E+00  0.2802E+02
   8.135  0.2296E+00  0.2802E+02
   8.145  0.2317E+00  0.2802E+02
   8.155  0.2341E+00  0.2802E+02
   8.165  0.2367E+00  0.2803E+02
   8.175  0.2394E+00  0.2803E+02
   8.185  0.2424E+00  0.2803E+02
   8.195  0.2456E+00  0.2803E+02
   8.205  0.2489E+00  0.2804E+02
   8.215  0.2525E+00  0.2804E+02
   8.225  0.2563E+00  0.2804E+02
   8.235  0.2603E+00  0.2804E+02
   8.245  0.2645E+00  0.2805E+02
   8.255  0.2689E+00  0.2805E+02
   8.265  0.2735E+00  0.2805E+02
   8.275  0.2784E+00  0.2806E+02
   8.285  0.2834E+00  0.2806E+02
   8.295  0.2887E+00  0.2806E+02
   8.305  0.2942E+00  0.2806E+02
   8.315  0.2999E+00  0.2807E+02
   8.325  0.3059E+00  0.2807E+02
   8.335  0.3120E+00  0.2807E+02
   8.345  0.3184E+00  0.2808E+02
   8.355  0.3250E+00  0.2808E+02
   8.365  0.3318E+00  0.2808E+02
   8.375  0.3389E+00  0.2809E+02
   8.385  0.3461E+00  0.2809E+02
   8.395  0.3536E+00  0.2809E+02
   8.405  0.3613E+00  0.2810E+02
   8.415  0.3693E+00  0.2810E+02
   8.425  0.3774E+00  0.2810E+02
   8.435  0.3858E+00  0.2811E+02
   8.445  0.3944E+00  0.2811E+02
   8.455  0.4033E+00  0.2812E+02
   8.465  0.4123E+00  0.2812E+02
   8.475  0.4216E+00  0.2812E+02
   8.485  0.4311E+00  0.2813E+02
   8.495  0.4408E+00  0.2813E+02
   8.505  0.4508E+00  0.2814E+02
   8.515  0.4609E+00  0.2814E+02
   8.525  0.4713E+00  0.2815E+02
   8.535  0.4818E+00  0.2815E+02
   8.545  0.4926E+00  0.2816E+02
   8.555  0.5036E+00  0.2816E+02
   8.565  0.5148E+00  0.2817E+02
   8.575  0.5262E+00  0.2817E+02
   8.585  0.5378E+00  0.2818E+02
   8.595  0.5496E+00  0.2818E+02
   8.605  0.5616E+00  0.2819E+02
   8.615  0.5738E+00  0.2819E+02
   8.625  0.5862E+00  0.2820E+02
   8.635  0.5988E+00  0.2821E+02
   8.645  0.6115E+00  0.2821E+02
   8.655  0.6244E+00  0.2822E+02
   8.665  0.6375E+00  0.2823E+02
   8.675  0.6508E+00  0.2823E+02
   8.685  0.6642E+00  0.2824E+02
   8.695  0.6777E+00  0.2825E+02
   8.705  0.6914E+00  0.2825E+02
   8.715  0.7053E+00  0.2826E+02
   8.725  0.7193E+00  0.2827E+02
   8.735  0.7334E+00  0.2827E+02
   8.745  0.7477E+00  0.2828E+02
   8.755  0.7620E+00  0.2829E+02
   8.765  0.7765E+00  0.2830E+02
   8.775  0.7911E+00  0.2830E+02
   8.785  0.8058E+00  0.2831E+02
   8.795  0.8206E+00  0.2832E+02
   8.805  0.8354E+00  0.2833E+02
   8.815  0.8504E+00  0.2834E+02
   8.825  0.8653E+00  0.2835E+02
   8.835  0.8804E+00  0.2835E+02
   8.845  0.8955E+00  0.2836E+02
   8.855  0.9106E+00  0.2837E+02
   8.865  0.9258E+00  0.2838E+02
   8.875  0.9410E+00  0.2839E+02
   8.885  0.9562E+00  0.2840E+02
   8.895  0.9714E+00  0.2841E+02
   8.905  0.9866E+00  0.2842E+02
   8.915  0.1002E+01  0.2843E+02
   8.925  0.1017E+01  0.2844E+02
   8.935  0.1032E+01  0.2845E+02
   8.945  0.1047E+01  0.2846E+02
   8.955  0.1062E+01  0.2847E+02
   8.965  0.1077E+01  0.2848E+02
   8.975  0.1092E+01  0.2849E+02
   8.985  0.1107E+01  0.2851E+02
   8.995  0.1121E+01  0.2852E+02
   9.005  0.1136E+01  0.2853E+02
   9.015  0.1151E+01  0.2854E+02
   9.025  0.1165E+01  0.2855E+02
   9.035  0.1179E+01  0.2856E+02
   9.045  0.1193E+01  0.2857E+02
   9.055  0.1207E+01  0.2859E+02
   9.065  0.1221E+01  0.2860E+02
   9.075  0.1234E+01  0.2861E+02
   9.085  0.1248E+01  0.2862E+02
   9.095  0.1261E+01  0.2864E+02
   9.105  0.1274E+01  0.2865E+02
   9.115  0.1286E+01  0.2866E+02
   9.125  0.1299E+01  0.2867E+02
   9.135  0.1311E+01  0.2869E+02
   9.145  0.1323E+01  0.2870E+02
   9.155  0.1335E+01  0.2871E+02
   9.165  0.1346E+01  0.2873E+02
   9.175  0.1357E+01  0.2874E+02
   9.185  0.1368E+01  0.2876E+02
   9.195  0.1379E+01  0.2877E+02
   9.205  0.1389E+01  0.2878E+02
   9.215  0.1399E+01  0.2880E+02
   9.225  0.1409E+01  0.2881E+02
   9.235  0.1418E+01  0.2883E+02
   9.245  0.1427E+01  0.2884E+02
   9.255  0.1436E+01  0.2885E+02
   9.265  0.1445E+01  0.2887E+02
   9.275  0.1453E+01  0.2888E+02
   9.285  0.1460E+01  0.2890E+02
   9.295  0.1468E+01  0.2891E+02
   9.305  0.1475E+01  0.2893E+02
   9.315  0.1482E+01  0.2894E+02
   9.325  0.1488E+01  0.2896E+02
   9.335  0.1494E+01  0.2897E+02
   9.345  0.1500E+01  0.2899E+02
   9.355  0.1505E+01  0.2900E+02
   9.365  0.1510E+01  0.2902E+02
   9.375  0.1515E+01  0.2903E+02
   9.385  0.1519E+01  0.2905E+02
   9.395  0.1523E+01  0.2906E+02
   9.405  0.1526E+01  0.2908E+02
   9.415  0.1529E+01  0.2909E+02
   9.425  0.1532E+01  0.2911E+02
   9.435  0.1535E+01  0.2912E+02
   9.445  0.1537E+01  0.2914E+02
   9.455  0.1539E+01  0.2915E+02
   9.465  0.1540E+01  0.2917E+02
   9.475  0.1541E+01  0.2919E+02
   9.485  0.1542E+01  0.2920E+02
   9.495  0.1543E+01  0.2922E+02
   9.505  0.1543E+01  0.2923E+02
   9.515  0.1543E+01  0.2925E+02
   9.525  0.1542E+01  0.2926E+02
   9.535  0.1542E+01  0.2928E+02
   9.545  0.1541E+01  0.2929E+02
   9.555  0.1539E+01  0.2931E+02
   9.565  0.1538E+01  0.2932E+02
   9.575  0.1536E+01  0.2934E+02
   9.585  0.1534E+01  0.2935E+02
   9.595  0.1532E+01  0.2937E+02
   9.605  0.1529E+01  0.2939E+02
   9.615  0.1526E+01  0.2940E+02
   9.625  0.1523E+01  0.2942E+02
   9.635  0.1520E+01  0.2943E+02
   9.645  0.1517E+01  0.2945E+02
   9.655  0.1513E+01  0.2946E+02
   9.665  0.1509E+01  0.2948E+02
   9.675  0.1505E+01  0.2949E+02
   9.685  0.1501E+01  0.2951E+02
   9.695  0.1497E+01  0.2952E+02
   9.705  0.1493E+01  0.2954E+02
   9.715  0.1488E+01  0.2955E+02
   9.725  0.1484E+01  0.2957E+02
   9.735  0.1479E+01  0.2958E+02
   9.745  0.1474E+01  0.2960E+02
   9.755  0.1469E+01  0.2961E+02
   9.765  0.1464E+01  0.2962E+02
   9.775  0.1459E+01  0.2964E+02
   9.785  0.1454E+01  0.2965E+02
   9.795  0.1448E+01  0.2967E+02
   9.805  0.1443E+01  0.2968E+02
   9.815  0.1438E+01  0.2970E+02
   9.825  0.1432E+01  0.2971E+02
   9.835  0.1427E+01  0.2973E+02
   9.845  0.1422E+01  0.2974E+02
   9.855  0.1416E+01  0.2975E+02
   9.865  0.1411E+01  0.2977E+02
   9.875  0.1405E+01  0.2978E+02
   9.885  0.1400E+01  0.2980E+02
   9.895  0.1395E+01  0.2981E+02
   9.905  0.1389E+01  0.2982E+02
   9.915  0.1384E+01  0.2984E+02
   9.925  0.1379E+01  0.2985E+02
   9.935  0.1373E+01  0.2987E+02
   9.945  0.1368E+01  0.2988E+02
   9.955  0.1363E+01  0.2989E+02
   9.965  0.1358E+01  0.2991E+02
   9.975  0.1353E+01  0.2992E+02
   9.985  0.1348E+01  0.2993E+02
   9.995  0.1343E+01  0.2995E+02
  10.005  0.1339E+01  0.2996E+02
  10.015  0.1334E+01  0.2997E+02
  10.025  0.1330E+01  0.2999E+02
  10.035  0.1325E+01  0.3000E+02
  10.045  0.1321E+01  0.3001E+02
  10.055  0.1317E+01  0.3003E+02
  10.065  0.1313E+01  0.3004E+02
  10.075  0.1309E+01  0.3005E+02
  10.085  0.1305E+01  0.3007E+02
  10.095  0.1301E+01  0.3008E+02
  10.105  0.1298E+01  0.3009E+02
  10.115  0.1294E+01  0.3010E+02
  10.125  0.1291E+01  0.3012E+02
  10.135  0.1288E+01  0.3013E+02
  10.145  0.1285E+01  0.3014E+02
  10.155  0.1282E+01  0.3016E+02
  10.165  0.1279E+01  0.3017E+02
  10.175  0.1277E+01  0.3018E+02
  10.185  0.1275E+01  0.3019E+02
  10.195  0.1272E+01  0.3021E+02
  10.205  0.1270E+01  0.3022E+02
  10.215  0.1269E+01  0.3023E+02
  10.225  0.1267E+01  0.3025E+02
  10.235  0.1265E+01  0.3026E+02
  10.245  0.1264E+01  0.3027E+02
  10.255  0.1263E+01  0.3028E+02
  10.265  0.1262E+01  0.3030E+02
  10.275  0.1261E+01  0.3031E+02
  10.285  0.1261E+01  0.3032E+02
  10.295  0.1260E+01  0.3033E+02
  10.305  0.1260E+01  0.3035E+02
  10.315  0.1260E+01  0.3036E+02
  10.325  0.1260E+01  0.3037E+02
  10.335  0.1260E+01  0.3038E+02
  10.345  0.1261E+01  0.3040E+02
  10.355  0.1262E+01  0.3041E+02
  10.365  0.1262E+01  0.3042E+02
  10.375  0.1264E+01  0.3043E+02
  10.385  0.1265E+01  0.3045E+02
  10.395  0.1266E+01  0.3046E+02
  10.405  0.1268E+01  0.3047E+02
  10.415  0.1270E+01  0.3049E+02
  10.425  0.1272E+01  0.3050E+02
  10.435  0.1274E+01  0.3051E+02
  10.445  0.1276E+01  0.3052E+02
  10.455  0.1279E+01  0.3054E+02
  10.465  0.1281E+01  0.3055E+02
  10.475  0.1284E+01  0.3056E+02
  10.485  0.1287E+01  0.3057E+02
  10.495  0.1290E+01  0.3059E+02
  10.505  0.1294E+01  0.3060E+02
  10.515  0.1297E+01  0.3061E+02
  10.525  0.1301E+01  0.3063E+02
  10.535  0.1305E+01  0.3064E+02
  10.545  0.1309E+01  0.3065E+02
  10.555  0.1313E+01  0.3067E+02
  10.565  0.1317E+01  0.3068E+02
  10.575  0.1321E+01  0.3069E+02
  10.585  0.1326E+01  0.3071E+02
  10.595  0.1330E+01  0.3072E+02
  10.605  0.1335E+01  0.3073E+02
  10.615  0.1340E+01  0.3075E+02
  10.625  0.1344E+01  0.3076E+02
  10.635  0.1349E+01  0.3077E+02
  10.645  0.1354E+01  0.3079E+02
  10.655  0.1359E+01  0.3080E+02
  10.665  0.1365E+01  0.3081E+02
  10.675  0.1370E+01  0.3083E+02
  10.685  0.1375E+01  0.3084E+02
  10.695  0.1380E+01  0.3085E+02
  10.705  0.1386E+01  0.3087E+02
  10.715  0.1391E+01  0.3088E+02
  10.725  0.1396E+01  0.3090E+02
  10.735  0.1402E+01  0.3091E+02
  10.745  0.1407E+01  0.3092E+02
  10.755  0.1413E+01  0.3094E+02
  10.765  0.1418E+01  0.3095E+02
  10.775  0.1423E+01  0.3097E+02
  10.785  0.1429E+01  0.3098E+02
  10.795  0.1434E+01  0.3100E+02
  10.805  0.1439E+01  0.3101E+02
  10.815  0.1444E+01  0.3102E+02
  10.825  0.1450E+01  0.3104E+02
  10.835  0.1455E+01  0.3105E+02
  10.845  0.1460E+01  0.3107E+02
  10.855  0.1464E+01  0.3108E+02
  10.865  0.1469E+01  0.3110E+02
  10.875  0.1474E+01  0.3111E+02
  10.885  0.1479E+01  0.3113E+02
  10.895  0.1483E+01  0.3114E+02
  10.905  0.1488E+01  0.3116E+02
  10.915  0.1492E+01  0.3117E+02
  10.925  0.1496E+01  0.3119E+02
  10.935  0.1500E+01  0.3120E+02
  10.945  0.1504E+01  0.3122E+02
  10.955  0.1508E+01  0.3123E+02
  10.965  0.1512E+01  0.3125E+02
  10.975  0.1515E+01  0.3126E+02
  10.985  0.1518E+01  0.3128E+02
  10.995  0.1522E+01  0.3129E+02
  11.005  0.1525E+01  0.3131E+02
  11.015  0.1528E+01  0.3132E+02
  11.025  0.1530E+01  0.3134E+02
  11.035  0.1533E+01  0.3135E+02
  11.045  0.1536E+01  0.3137E+02
  11.055  0.1538E+01  0.3138E+02
  11.065  0.1540E+01  0.3140E+02
  11.075  0.1542E+01  0.3141E+02
  11.085  0.1544E+01  0.3143E+02
  11.095  0.1546E+01  0.3145E+02
  11.105  0.1547E+01  0.3146E+02
  11.115  0.1549E+01  0.3148E+02
  11.125  0.1550E+01  0.3149E+02
  11.135  0.1551E+01  0.3151E+02
  11.145  0.1552E+01  0.3152E+02
  11.155  0.1553E+01  0.3154E+02
  11.165  0.1554E+01  0.3155E+02
  11.175  0.1554E+01  0.3157E+02
  11.185  0.1555E+01  0.3159E+02
  11.195  0.1555E+01  0.3160E+02
  11.205  0.1555E+01  0.3162E+02
  11.215  0.1556E+01  0.3163E+02
  11.225  0.1556E+01  0.3165E+02
  11.235  0.1556E+01  0.3166E+02
  11.245  0.1555E+01  0.3168E+02
  11.255  0.1555E+01  0.3169E+02
  11.265  0.1555E+01  0.3171E+02
  11.275  0.1555E+01  0.3173E+02
  11.285  0.1554E+01  0.3174E+02
  11.295  0.1554E+01  0.3176E+02
  11.305  0.1553E+01  0.3177E+02
  11.315  0.1553E+01  0.3179E+02
  11.325  0.1552E+01  0.3180E+02
  11.335  0.1551E+01  0.3182E+02
  11.345  0.1551E+01  0.3183E+02
  11.355  0.1550E+01  0.3185E+02
  11.365  0.1549E+01  0.3186E+02
  11.375  0.1549E+01  0.3188E+02
  11.385  0.1548E+01  0.3190E+02
  11.395  0.1547E+01  0.3191E+02
  11.405  0.1547E+01  0.3193E+02
  11.415  0.1546E+01  0.3194E+02
  11.425  0.1546E+01  0.3196E+02
  11.435  0.1545E+01  0.3197E+02
  11.445  0.1544E+01  0.3199E+02
  11.455  0.1544E+01  0.3200E+02
  11.465  0.1544E+01  0.3202E+02
  11.475  0.1543E+01  0.3204E+02
  11.485  0.1543E+01  0.3205E+02
  11.495  0.1543E+01  0.3207E+02
  11.505  0.1543E+01  0.3208E+02
  11.515  0.1543E+01  0.3210E+02
  11.525  0.1543E+01  0.3211E+02
  11.535  0.1543E+01  0.3213E+02
  11.545  0.1543E+01  0.3214E+02
  11.555  0.1543E+01  0.3216E+02
  11.565  0.1544E+01  0.3217E+02
  11.575  0.1544E+01  0.3219E+02
  11.585  0.1545E+01  0.3220E+02
  11.595  0.1545E+01  0.3222E+02
  11.605  0.1546E+01  0.3224E+02
  11.615  0.1547E+01  0.3225E+02
  11.625  0.1548E+01  0.3227E+02
  11.635  0.1549E+01  0.3228E+02
  11.645  0.1550E+01  0.3230E+02
  11.655  0.1552E+01  0.3231E+02
  11.665  0.1553E+01  0.3233E+02
  11.675  0.1554E+01  0.3234E+02
  11.685  0.1556E+01  0.3236E+02
  11.695  0.1558E+01  0.3238E+02
  11.705  0.1559E+01  0.3239E+02
  11.715  0.1561E+01  0.3241E+02
  11.725  0.1563E+01  0.3242E+02
  11.735  0.1565E+01  0.3244E+02
  11.745  0.1567E+01  0.3245E+02
  11.755  0.1569E+01  0.3247E+02
  11.765  0.1571E+01  0.3248E+02
  11.775  0.1573E+01  0.3250E+02
  11.785  0.1575E+01  0.3252E+02
  11.795  0.1578E+01  0.3253E+02
  11.805  0.1580E+01  0.3255E+02
  11.815  0.1582E+01  0.3256E+02
  11.825  0.1584E+01  0.3258E+02
  11.835  0.1587E+01  0.3260E+02
  11.845  0.1589E+01  0.3261E+02
  11.855  0.1591E+01  0.3263E+02
  11.865  0.1594E+01  0.3264E+02
  11.875  0.1596E+01  0.3266E+02
  11.885  0.1598E+01  0.3268E+02
  11.895  0.1600E+01  0.3269E+02
  11.905  0.1603E+01  0.3271E+02
  11.915  0.1605E+01  0.3272E+02
  11.925  0.1607E+01  0.3274E+02
  11.935  0.1609E+01  0.3276E+02
  11.945  0.1611E+01  0.3277E+02
  11.955  0.1613E+01  0.3279E+02
  11.965  0.1615E+01  0.3280E+02
  11.975  0.1617E+01  0.3282E+02
  11.985  0.1618E+01  0.3284E+02
  11.995  0.1620E+01  0.3285E+02
  12.005  0.1621E+01  0.3287E+02
  12.015  0.1623E+01  0.3288E+02
  12.025  0.1624E+01  0.3290E+02
  12.035  0.1625E+01  0.3292E+02
  12.045  0.1626E+01  0.3293E+02
  12.055  0.1627E+01  0.3295E+02
  12.065  0.1627E+01  0.3297E+02
  12.075  0.1628E+01  0.3298E+02
  12.085  0.1629E+01  0.3300E+02
  12.095  0.1629E+01  0.3301E+02
  12.105  0.1629E+01  0.3303E+02
  12.115  0.1629E+01  0.3305E+02
  12.125  0.1629E+01  0.3306E+02
  12.135  0.1629E+01  0.3308E+02
  12.145  0.1628E+01  0.3310E+02
  12.155  0.1627E+01  0.3311E+02
  12.165  0.1627E+01  0.3313E+02
  12.175  0.1626E+01  0.3315E+02
  12.185  0.1625E+01  0.3316E+02
  12.195  0.1623E+01  0.3318E+02
  12.205  0.1622E+01  0.3319E+02
  12.215  0.1620E+01  0.3321E+02
  12.225  0.1619E+01  0.3323E+02
  12.235  0.1617E+01  0.3324E+02
  12.245  0.1615E+01  0.3326E+02
  12.255  0.1613E+01  0.3327E+02
  12.265  0.1610E+01  0.3329E+02
  12.275  0.1608E+01  0.3331E+02
  12.285  0.1605E+01  0.3332E+02
  12.295  0.1602E+01  0.3334E+02
  12.305  0.1599E+01  0.3335E+02
  12.315  0.1596E+01  0.3337E+02
  12.325  0.1593E+01  0.3339E+02
  12.335  0.1590E+01  0.3340E+02
  12.345  0.1587E+01  0.3342E+02
  12.355  0.1583E+01  0.3343E+02
  12.365  0.1579E+01  0.3345E+02
  12.375  0.1576E+01  0.3347E+02
  12.385  0.1572E+01  0.3348E+02
  12.395  0.1568E+01  0.3350E+02
  12.405  0.1564E+01  0.3351E+02
  12.415  0.1560E+01  0.3353E+02
  12.425  0.1555E+01  0.3354E+02
  12.435  0.1551E+01  0.3356E+02
  12.445  0.1547E+01  0.3358E+02
  12.455  0.1542E+01  0.3359E+02
  12.465  0.1538E+01  0.3361E+02
  12.475  0.1533E+01  0.3362E+02
  12.485  0.1529E+01  0.3364E+02
  12.495  0.1524E+01  0.3365E+02
  12.505  0.1519E+01  0.3367E+02
  12.515  0.1515E+01  0.3368E+02
  12.525  0.1510E+01  0.3370E+02
  12.535  0.1505E+01  0.3371E+02
  12.545  0.1501E+01  0.3373E+02
  12.555  0.1496E+01  0.3374E+02
  12.565  0.1491E+01  0.3376E+02
  12.575  0.1486E+01  0.3377E+02
  12.585  0.1482E+01  0.3379E+02
  12.595  0.1477E+01  0.3380E+02
  12.605  0.1472E+01  0.3382E+02
  12.615  0.1467E+01  0.3383E+02
  12.625  0.1463E+01  0.3385E+02
  12.635  0.1458E+01  0.3386E+02
  12.645  0.1453E+01  0.3387E+02
  12.655  0.1449E+01  0.3389E+02
  12.665  0.1444E+01  0.3390E+02
  12.675  0.1440E+01  0.3392E+02
  12.685  0.1435E+01  0.3393E+02
  12.695  0.1431E+01  0.3395E+02
  12.705  0.1427E+01  0.3396E+02
  12.715  0.1422E+01  0.3398E+02
  12.725  0.1418E+01  0.3399E+02
  12.735  0.1414E+01  0.3400E+02
  12.745  0.1410E+01  0.3402E+02
  12.755  0.1406E+01  0.3403E+02
  12.765  0.1402E+01  0.3405E+02
  12.775  0.1398E+01  0.3406E+02
  12.785  0.1394E+01  0.3407E+02
  12.795  0.1390E+01  0.3409E+02
  12.805  0.1387E+01  0.3410E+02
  12.815  0.1383E+01  0.3412E+02
  12.825  0.1380E+01  0.3413E+02
  12.835  0.1376E+01  0.3414E+02
  12.845  0.1373E+01  0.3416E+02
  12.855  0.1369E+01  0.3417E+02
  12.865  0.1366E+01  0.3418E+02
  12.875  0.1363E+01  0.3420E+02
  12.885  0.1360E+01  0.3421E+02
  12.895  0.1357E+01  0.3422E+02
  12.905  0.1354E+01  0.3424E+02
  12.915  0.1351E+01  0.3425E+02
  12.925  0.1348E+01  0.3427E+02
  12.935  0.1346E+01  0.3428E+02
  12.945  0.1343E+01  0.3429E+02
  12.955  0.1341E+01  0.3431E+02
  12.965  0.1338E+01  0.3432E+02
  12.975  0.1336E+01  0.3433E+02
  12.985  0.1333E+01  0.3435E+02
  12.995  0.1331E+01  0.3436E+02
  13.005  0.1329E+01  0.3437E+02
  13.015  0.1327E+01  0.3439E+02
  13.025  0.1325E+01  0.3440E+02
  13.035  0.1323E+01  0.3441E+02
  13.045  0.1321E+01  0.3443E+02
  13.055  0.1319E+01  0.3444E+02
  13.065  0.1317E+01  0.3445E+02
  13.075  0.1315E+01  0.3446E+02
  13.085  0.1313E+01  0.3448E+02
  13.095  0.1311E+01  0.3449E+02
  13.105  0.1310E+01  0.3450E+02
  13.115  0.1308E+01  0.3452E+02
  13.125  0.1307E+01  0.3453E+02
  13.135  0.1305E+01  0.3454E+02
  13.145  0.1303E+01  0.3456E+02
  13.155  0.1302E+01  0.3457E+02
  13.165  0.1301E+01  0.3458E+02
  13.175  0.1299E+01  0.3460E+02
  13.185  0.1298E+01  0.3461E+02
  13.195  0.1296E+01  0.3462E+02
  13.205  0.1295E+01  0.3463E+02
  13.215  0.1294E+01  0.3465E+02
  13.225  0.1292E+01  0.3466E+02
  13.235  0.1291E+01  0.3467E+02
  13.245  0.1290E+01  0.3469E+02
  13.255  0.1289E+01  0.3470E+02
  13.265  0.1288E+01  0.3471E+02
  13.275  0.1286E+01  0.3472E+02
  13.285  0.1285E+01  0.3474E+02
  13.295  0.1284E+01  0.3475E+02
  13.305  0.1283E+01  0.3476E+02
  13.315  0.1282E+01  0.3478E+02
  13.325  0.1281E+01  0.3479E+02
  13.335  0.1280E+01  0.3480E+02
  13.345  0.1279E+01  0.3481E+02
  13.355  0.1278E+01  0.3483E+02
  13.365  0.1277E+01  0.3484E+02
  13.375  0.1275E+01  0.3485E+02
  13.385  0.1274E+01  0.3487E+02
  13.395  0.1273E+01  0.3488E+02
  13.405  0.1272E+01  0.3489E+02
  13.415  0.1271E+01  0.3490E+02
  13.425  0.1270E+01  0.3492E+02
  13.435  0.1270E+01  0.3493E+02
  13.445  0.1269E+01  0.3494E+02
  13.455  0.1268E+01  0.3495E+02
  13.465  0.1267E+01  0.3497E+02
  13.475  0.1266E+01  0.3498E+02
  13.485  0.1265E+01  0.3499E+02
  13.495  0.1264E+01  0.3500E+02
  13.505  0.1263E+01  0.3502E+02
  13.515  0.1262E+01  0.3503E+02
  13.525  0.1262E+01  0.3504E+02
  13.535  0.1261E+01  0.3506E+02
  13.545  0.1260E+01  0.3507E+02
  13.555  0.1259E+01  0.3508E+02
  13.565  0.1258E+01  0.3509E+02
  13.575  0.1258E+01  0.3511E+02
  13.585  0.1257E+01  0.3512E+02
  13.595  0.1256E+01  0.3513E+02
  13.605  0.1256E+01  0.3514E+02
  13.615  0.1255E+01  0.3516E+02
  13.625  0.1254E+01  0.3517E+02
  13.635  0.1254E+01  0.3518E+02
  13.645  0.1253E+01  0.3519E+02
  13.655  0.1253E+01  0.3521E+02
  13.665  0.1252E+01  0.3522E+02
  13.675  0.1252E+01  0.3523E+02
  13.685  0.1252E+01  0.3524E+02
  13.695  0.1251E+01  0.3526E+02
  13.705  0.1251E+01  0.3527E+02
  13.715  0.1251E+01  0.3528E+02
  13.725  0.1251E+01  0.3529E+02
  13.735  0.1251E+01  0.3531E+02
  13.745  0.1250E+01  0.3532E+02
  13.755  0.1250E+01  0.3533E+02
  13.765  0.1250E+01  0.3534E+02
  13.775  0.1250E+01  0.3536E+02
  13.785  0.1251E+01  0.3537E+02
  13.795  0.1251E+01  0.3538E+02
  13.805  0.1251E+01  0.3539E+02
  13.815  0.1251E+01  0.3541E+02
  13.825  0.1252E+01  0.3542E+02
  13.835  0.1252E+01  0.3543E+02
  13.845  0.1252E+01  0.3544E+02
  13.855  0.1253E+01  0.3546E+02
  13.865  0.1254E+01  0.3547E+02
  13.875  0.1254E+01  0.3548E+02
  13.885  0.1255E+01  0.3549E+02
  13.895  0.1256E+01  0.3551E+02
  13.905  0.1257E+01  0.3552E+02
  13.915  0.1258E+01  0.3553E+02
  13.925  0.1259E+01  0.3554E+02
  13.935  0.1260E+01  0.3556E+02
  13.945  0.1261E+01  0.3557E+02
  13.955  0.1262E+01  0.3558E+02
  13.965  0.1264E+01  0.3559E+02
  13.975  0.1265E+01  0.3561E+02
  13.985  0.1267E+01  0.3562E+02
  13.995  0.1268E+01  0.3563E+02
  14.005  0.1270E+01  0.3565E+02
  14.015  0.1271E+01  0.3566E+02
  14.025  0.1273E+01  0.3567E+02
  14.035  0.1275E+01  0.3568E+02
  14.045  0.1277E+01  0.3570E+02
  14.055  0.1279E+01  0.3571E+02
  14.065  0.1281E+01  0.3572E+02
  14.075  0.1283E+01  0.3573E+02
  14.085  0.1286E+01  0.3575E+02
  14.095  0.1288E+01  0.3576E+02
  14.105  0.1290E+01  0.3577E+02
  14.115  0.1293E+01  0.3579E+02
  14.125  0.1295E+01  0.3580E+02
  14.135  0.1298E+01  0.3581E+02
  14.145  0.1301E+01  0.3583E+02
  14.155  0.1304E+01  0.3584E+02
  14.165  0.1307E+01  0.3585E+02
  14.175  0.1309E+01  0.3586E+02
  14.185  0.1312E+01  0.3588E+02
  14.195  0.1316E+01  0.3589E+02
  14.205  0.1319E+01  0.3590E+02
  14.215  0.1322E+01  0.3592E+02
  14.225  0.1325E+01  0.3593E+02
  14.235  0.1329E+01  0.3594E+02
  14.245  0.1332E+01  0.3596E+02
  14.255  0.1336E+01  0.3597E+02
  14.265  0.1339E+01  0.3598E+02
  14.275  0.1343E+01  0.3600E+02
  14.285  0.1346E+01  0.3601E+02
  14.295  0.1350E+01  0.3602E+02
  14.305  0.1354E+01  0.3604E+02
  14.315  0.1358E+01  0.3605E+02
  14.325  0.1362E+01  0.3606E+02
  14.335  0.1366E+01  0.3608E+02
  14.345  0.1370E+01  0.3609E+02
  14.355  0.1374E+01  0.3611E+02
  14.365  0.1378E+01  0.3612E+02
  14.375  0.1382E+01  0.3613E+02
  14.385  0.1386E+01  0.3615E+02
  14.395  0.1391E+01  0.3616E+02
  14.405  0.1395E+01  0.3618E+02
  14.415  0.1399E+01  0.3619E+02
  14.425  0.1404E+01  0.3620E+02
  14.435  0.1408E+01  0.3622E+02
  14.445  0.1413E+01  0.3623E+02
  14.455  0.1417E+01  0.3625E+02
  14.465  0.1422E+01  0.3626E+02
  14.475  0.1427E+01  0.3627E+02
  14.485  0.1431E+01  0.3629E+02
  14.495  0.1436E+01  0.3630E+02
  14.505  0.1441E+01  0.3632E+02
  14.515  0.1445E+01  0.3633E+02
  14.525  0.1450E+01  0.3635E+02
  14.535  0.1455E+01  0.3636E+02
  14.545  0.1460E+01  0.3638E+02
  14.555  0.1465E+01  0.3639E+02
  14.565  0.1470E+01  0.3640E+02
  14.575  0.1475E+01  0.3642E+02
  14.585  0.1480E+01  0.3643E+02
  14.595  0.1484E+01  0.3645E+02
  14.605  0.1489E+01  0.3646E+02
  14.615  0.1494E+01  0.3648E+02
  14.625  0.1499E+01  0.3649E+02
  14.635  0.1504E+01  0.3651E+02
  14.645  0.1509E+01  0.3652E+02
  14.655  0.1514E+01  0.3654E+02
  14.665  0.1519E+01  0.3655E+02
  14.675  0.1525E+01  0.3657E+02
  14.685  0.1530E+01  0.3658E+02
  14.695  0.1535E+01  0.3660E+02
  14.705  0.1540E+01  0.3662E+02
  14.715  0.1545E+01  0.3663E+02
  14.725  0.1550E+01  0.3665E+02
  14.735  0.1555E+01  0.3666E+02
  14.745  0.1560E+01  0.3668E+02
  14.755  0.1564E+01  0.3669E+02
  14.765  0.1569E+01  0.3671E+02
  14.775  0.1574E+01  0.3672E+02
  14.785  0.1579E+01  0.3674E+02
  14.795  0.1584E+01  0.3676E+02
  14.805  0.1589E+01  0.3677E+02
  14.815  0.1594E+01  0.3679E+02
  14.825  0.1598E+01  0.3680E+02
  14.835  0.1603E+01  0.3682E+02
  14.845  0.1608E+01  0.3684E+02
  14.855  0.1612E+01  0.3685E+02
  14.865  0.1617E+01  0.3687E+02
  14.875  0.1621E+01  0.3688E+02
  14.885  0.1626E+01  0.3690E+02
  14.895  0.1630E+01  0.3692E+02
  14.905  0.1635E+01  0.3693E+02
  14.915  0.1639E+01  0.3695E+02
  14.925  0.1643E+01  0.3697E+02
  14.935  0.1647E+01  0.3698E+02
  14.945  0.1651E+01  0.3700E+02
  14.955  0.1655E+01  0.3702E+02
  14.965  0.1659E+01  0.3703E+02
  14.975  0.1663E+01  0.3705E+02
  14.985  0.1667E+01  0.3707E+02
  14.995  0.1671E+01  0.3708E+02
  15.005  0.1674E+01  0.3710E+02
  15.015  0.1678E+01  0.3712E+02
  15.025  0.1681E+01  0.3713E+02
  15.035  0.1684E+01  0.3715E+02
  15.045  0.1688E+01  0.3717E+02
  15.055  0.1691E+01  0.3718E+02
  15.065  0.1694E+01  0.3720E+02
  15.075  0.1697E+01  0.3722E+02
  15.085  0.1700E+01  0.3723E+02
  15.095  0.1702E+01  0.3725E+02
  15.105  0.1705E+01  0.3727E+02
  15.115  0.1708E+01  0.3729E+02
  15.125  0.1710E+01  0.3730E+02
  15.135  0.1713E+01  0.3732E+02
  15.145  0.1715E+01  0.3734E+02
  15.155  0.1717E+01  0.3735E+02
  15.165  0.1719E+01  0.3737E+02
  15.175  0.1721E+01  0.3739E+02
  15.185  0.1723E+01  0.3741E+02
  15.195  0.1725E+01  0.3742E+02
  15.205  0.1726E+01  0.3744E+02
  15.215  0.1728E+01  0.3746E+02
  15.225  0.1729E+01  0.3748E+02
  15.235  0.1731E+01  0.3749E+02
  15.245  0.1732E+01  0.3751E+02
  15.255  0.1733E+01  0.3753E+02
  15.265  0.1734E+01  0.3754E+02
  15.275  0.1735E+01  0.3756E+02
  15.285  0.1736E+01  0.3758E+02
  15.295  0.1737E+01  0.3760E+02
  15.305  0.1738E+01  0.3761E+02
  15.315  0.1738E+01  0.3763E+02
  15.325  0.1739E+01  0.3765E+02
  15.335  0.1739E+01  0.3767E+02
  15.345  0.1740E+01  0.3768E+02
  15.355  0.1740E+01  0.3770E+02
  15.365  0.1740E+01  0.3772E+02
  15.375  0.1741E+01  0.3774E+02
  15.385  0.1741E+01  0.3775E+02
  15.395  0.1741E+01  0.3777E+02
  15.405  0.1741E+01  0.3779E+02
  15.415  0.1741E+01  0.3781E+02
  15.425  0.1740E+01  0.3782E+02
  15.435  0.1740E+01  0.3784E+02
  15.445  0.1740E+01  0.3786E+02
  15.455  0.1740E+01  0.3787E+02
  15.465  0.1739E+01  0.3789E+02
  15.475  0.1739E+01  0.3791E+02
  15.485  0.1738E+01  0.3793E+02
  15.495  0.1738E+01  0.3794E+02
  15.505  0.1737E+01  0.3796E+02
  15.515  0.1737E+01  0.3798E+02
  15.525  0.1736E+01  0.3800E+02
  15.535  0.1736E+01  0.3801E+02
  15.545  0.1735E+01  0.3803E+02
  15.555  0.1734E+01  0.3805E+02
  15.565  0.1734E+01  0.3807E+02
  15.575  0.1733E+01  0.3808E+02
  15.585  0.1732E+01  0.3810E+02
  15.595  0.1732E+01  0.3812E+02
  15.605  0.1731E+01  0.3814E+02
  15.615  0.1730E+01  0.3815E+02
  15.625  0.1729E+01  0.3817E+02
  15.635  0.1729E+01  0.3819E+02
  15.645  0.1728E+01  0.3820E+02
  15.655  0.1727E+01  0.3822E+02
  15.665  0.1726E+01  0.3824E+02
  15.675  0.1726E+01  0.3826E+02
  15.685  0.1725E+01  0.3827E+02
  15.695  0.1724E+01  0.3829E+02
  15.705  0.1723E+01  0.3831E+02
  15.715  0.1723E+01  0.3833E+02
  15.725  0.1722E+01  0.3834E+02
  15.735  0.1721E+01  0.3836E+02
  15.745  0.1721E+01  0.3838E+02
  15.755  0.1720E+01  0.3839E+02
  15.765  0.1720E+01  0.3841E+02
  15.775  0.1719E+01  0.3843E+02
  15.785  0.1719E+01  0.3845E+02
  15.795  0.1718E+01  0.3846E+02
  15.805  0.1718E+01  0.3848E+02
  15.815  0.1717E+01  0.3850E+02
  15.825  0.1717E+01  0.3851E+02
  15.835  0.1717E+01  0.3853E+02
  15.845  0.1717E+01  0.3855E+02
  15.855  0.1716E+01  0.3857E+02
  15.865  0.1716E+01  0.3858E+02
  15.875  0.1716E+01  0.3860E+02
  15.885  0.1716E+01  0.3862E+02
  15.895  0.1716E+01  0.3863E+02
  15.905  0.1716E+01  0.3865E+02
  15.915  0.1716E+01  0.3867E+02
  15.925  0.1716E+01  0.3869E+02
  15.935  0.1717E+01  0.3870E+02
  15.945  0.1717E+01  0.3872E+02
  15.955  0.1717E+01  0.3874E+02
  15.965  0.1718E+01  0.3875E+02
  15.975  0.1718E+01  0.3877E+02
  15.985  0.1719E+01  0.3879E+02
  15.995  0.1719E+01  0.3881E+02
  16.005  0.1720E+01  0.3882E+02
  16.015  0.1721E+01  0.3884E+02
  16.025  0.1721E+01  0.3886E+02
  16.035  0.1722E+01  0.3887E+02
  16.045  0.1723E+01  0.3889E+02
  16.055  0.1724E+01  0.3891E+02
  16.065  0.1725E+01  0.3893E+02
  16.075  0.1726E+01  0.3894E+02
  16.085  0.1727E+01  0.3896E+02
  16.095  0.1729E+01  0.3898E+02
  16.105  0.1730E+01  0.3900E+02
  16.115  0.1731E+01  0.3901E+02
  16.125  0.1733E+01  0.3903E+02
  16.135  0.1734E+01  0.3905E+02
  16.145  0.1736E+01  0.3907E+02
  16.155  0.1737E+01  0.3908E+02
  16.165  0.1739E+01  0.3910E+02
  16.175  0.1741E+01  0.3912E+02
  16.185  0.1743E+01  0.3913E+02
  16.195  0.1745E+01  0.3915E+02
  16.205  0.1746E+01  0.3917E+02
  16.215  0.1748E+01  0.3919E+02
  16.225  0.1750E+01  0.3920E+02
  16.235  0.1753E+01  0.3922E+02
  16.245  0.1755E+01  0.3924E+02
  16.255  0.1757E+01  0.3926E+02
  16.265  0.1759E+01  0.3927E+02
  16.275  0.1761E+01  0.3929E+02
  16.285  0.1764E+01  0.3931E+02
  16.295  0.1766E+01  0.3933E+02
  16.305  0.1768E+01  0.3935E+02
  16.315  0.1771E+01  0.3936E+02
  16.325  0.1773E+01  0.3938E+02
  16.335  0.1776E+01  0.3940E+02
  16.345  0.1778E+01  0.3942E+02
  16.355  0.1781E+01  0.3943E+02
  16.365  0.1783E+01  0.3945E+02
  16.375  0.1786E+01  0.3947E+02
  16.385  0.1788E+01  0.3949E+02
  16.395  0.1791E+01  0.3951E+02
  16.405  0.1794E+01  0.3952E+02
  16.415  0.1796E+01  0.3954E+02
  16.425  0.1799E+01  0.3956E+02
  16.435  0.1802E+01  0.3958E+02
  16.445  0.1804E+01  0.3960E+02
  16.455  0.1807E+01  0.3961E+02
  16.465  0.1810E+01  0.3963E+02
  16.475  0.1812E+01  0.3965E+02
  16.485  0.1815E+01  0.3967E+02
  16.495  0.1818E+01  0.3969E+02
  16.505  0.1820E+01  0.3970E+02
  16.515  0.1823E+01  0.3972E+02
  16.525  0.1825E+01  0.3974E+02
  16.535  0.1828E+01  0.3976E+02
  16.545  0.1831E+01  0.3978E+02
  16.555  0.1833E+01  0.3980E+02
  16.565  0.1836E+01  0.3981E+02
  16.575  0.1838E+01  0.3983E+02
  16.585  0.1841E+01  0.3985E+02
  16.595  0.1843E+01  0.3987E+02
  16.605  0.1845E+01  0.3989E+02
  16.615  0.1848E+01  0.3991E+02
  16.625  0.1850E+01  0.3992E+02
  16.635  0.1852E+01  0.3994E+02
  16.645  0.1855E+01  0.3996E+02
  16.655  0.1857E+01  0.3998E+02
  16.665  0.1859E+01  0.4000E+02
  16.675  0.1861E+01  0.4002E+02
  16.685  0.1863E+01  0.4004E+02
  16.695  0.1865E+01  0.4005E+02
  16.705  0.1867E+01  0.4007E+02
  16.715  0.1869E+01  0.4009E+02
  16.725  0.1871E+01  0.4011E+02
  16.735  0.1873E+01  0.4013E+02
  16.745  0.1875E+01  0.4015E+02
  16.755  0.1877E+01  0.4017E+02
  16.765  0.1879E+01  0.4019E+02
  16.775  0.1881E+01  0.4020E+02
  16.785  0.1882E+01  0.4022E+02
  16.795  0.1884E+01  0.4024E+02
  16.805  0.1886E+01  0.4026E+02
  16.815  0.1887E+01  0.4028E+02
  16.825  0.1889E+01  0.4030E+02
  16.835  0.1890E+01  0.4032E+02
  16.845  0.1892E+01  0.4034E+02
  16.855  0.1893E+01  0.4036E+02
  16.865  0.1895E+01  0.4037E+02
  16.875  0.1896E+01  0.4039E+02
  16.885  0.1898E+01  0.4041E+02
  16.895  0.1899E+01  0.4043E+02
  16.905  0.1900E+01  0.4045E+02
  16.915  0.1902E+01  0.4047E+02
  16.925  0.1903E+01  0.4049E+02
  16.935  0.1904E+01  0.4051E+02
  16.945  0.1906E+01  0.4053E+02
  16.955  0.1907E+01  0.4055E+02
  16.965  0.1908E+01  0.4057E+02
  16.975  0.1910E+01  0.4058E+02
  16.985  0.1911E+01  0.4060E+02
  16.995  0.1912E+01  0.4062E+02
  17.005  0.1913E+01  0.4064E+02
  17.015  0.1915E+01  0.4066E+02
  17.025  0.1916E+01  0.4068E+02
  17.035  0.1917E+01  0.4070E+02
  17.045  0.1918E+01  0.4072E+02
  17.055  0.1920E+01  0.4074E+02
  17.065  0.1921E+01  0.4076E+02
  17.075  0.1922E+01  0.4078E+02
  17.085  0.1924E+01  0.4080E+02
  17.095  0.1925E+01  0.4081E+02
  17.105  0.1926E+01  0.4083E+02
  17.115  0.1928E+01  0.4085E+02
  17.125  0.1929E+01  0.4087E+02
  17.135  0.1931E+01  0.4089E+02
  17.145  0.1932E+01  0.4091E+02
  17.155  0.1933E+01  0.4093E+02
  17.165  0.1935E+01  0.4095E+02
  17.175  0.1936E+01  0.4097E+02
  17.185  0.1938E+01  0.4099E+02
  17.195  0.1940E+01  0.4101E+02
  17.205  0.1941E+01  0.4103E+02
  17.215  0.1943E+01  0.4105E+02
  17.225  0.1944E+01  0.4107E+02
  17.235  0.1946E+01  0.4109E+02
  17.245  0.1948E+01  0.4110E+02
  17.255  0.1949E+01  0.4112E+02
  17.265  0.1951E+01  0.4114E+02
  17.275  0.1953E+01  0.4116E+02
  17.285  0.1954E+01  0.4118E+02
  17.295  0.1956E+01  0.4120E+02
  17.305  0.1958E+01  0.4122E+02
  17.315  0.1960E+01  0.4124E+02
  17.325  0.1961E+01  0.4126E+02
  17.335  0.1963E+01  0.4128E+02
  17.345  0.1965E+01  0.4130E+02
  17.355  0.1967E+01  0.4132E+02
  17.365  0.1969E+01  0.4134E+02
  17.375  0.1970E+01  0.4136E+02
  17.385  0.1972E+01  0.4138E+02
  17.395  0.1974E+01  0.4140E+02
  17.405  0.1976E+01  0.4142E+02
  17.415  0.1978E+01  0.4144E+02
  17.425  0.1979E+01  0.4146E+02
  17.435  0.1981E+01  0.4148E+02
  17.445  0.1983E+01  0.4150E+02
  17.455  0.1985E+01  0.4152E+02
  17.465  0.1986E+01  0.4154E+02
  17.475  0.1988E+01  0.4156E+02
  17.485  0.1990E+01  0.4158E+02
  17.495  0.1991E+01  0.4160E+02
  17.505  0.1993E+01  0.4162E+02
  17.515  0.1994E+01  0.4164E+02
  17.525  0.1996E+01  0.4166E+02
  17.535  0.1997E+01  0.4168E+02
  17.545  0.1998E+01  0.4170E+02
  17.555  0.2000E+01  0.4172E+02
  17.565  0.2001E+01  0.4174E+02
  17.575  0.2002E+01  0.4176E+02
  17.585  0.2003E+01  0.4178E+02
  17.595  0.2005E+01  0.4180E+02
  17.605  0.2006E+01  0.4182E+02
  17.615  0.2007E+01  0.4184E+02
  17.625  0.2007E+01  0.4186E+02
  17.635  0.2008E+01  0.4188E+02
  17.645  0.2009E+01  0.4190E+02
  17.655  0.2010E+01  0.4192E+02
  17.665  0.2010E+01  0.4194E+02
  17.675  0.2011E+01  0.4196E+02
  17.685  0.2011E+01  0.4198E+02
  17.695  0.2012E+01  0.4200E+02
  17.705  0.2012E+01  0.4202E+02
  17.715  0.2012E+01  0.4204E+02
  17.725  0.2012E+01  0.4206E+02
  17.735  0.2012E+01  0.4208E+02
  17.745  0.2012E+01  0.4210E+02
  17.755  0.2012E+01  0.4212E+02
  17.765  0.2011E+01  0.4214E+02
  17.775  0.2011E+01  0.4216E+02
  17.785  0.2010E+01  0.4218E+02
  17.795  0.2010E+01  0.4220E+02
  17.805  0.2009E+01  0.4222E+02
  17.815  0.2008E+01  0.4224E+02
  17.825  0.2007E+01  0.4226E+02
  17.835  0.2006E+01  0.4228E+02
  17.845  0.2005E+01  0.4230E+02
  17.855  0.2004E+01  0.4232E+02
  17.865  0.2002E+01  0.4234E+02
  17.875  0.2001E+01  0.4236E+02
  17.885  0.2000E+01  0.4238E+02
  17.895  0.1998E+01  0.4240E+02
  17.905  0.1996E+01  0.4242E+02
  17.915  0.1994E+01  0.4244E+02
  17.925  0.1993E+01  0.4246E+02
  17.935  0.1991E+01  0.4248E+02
  17.945  0.1988E+01  0.4250E+02
  17.955  0.1986E+01  0.4252E+02
  17.965  0.1984E+01  0.4254E+02
  17.975  0.1982E+01  0.4256E+02
  17.985  0.1979E+01  0.4258E+02
  17.995  0.1977E+01  0.4260E+02
  18.005  0.1974E+01  0.4262E+02
  18.015  0.1972E+01  0.4264E+02
  18.025  0.1969E+01  0.4266E+02
  18.035  0.1966E+01  0.4268E+02
  18.045  0.1963E+01  0.4270E+02
  18.055  0.1961E+01  0.4272E+02
  18.065  0.1958E+01  0.4274E+02
  18.075  0.1955E+01  0.4276E+02
  18.085  0.1952E+01  0.4278E+02
  18.095  0.1949E+01  0.4279E+02
  18.105  0.1946E+01  0.4281E+02
  18.115  0.1942E+01  0.4283E+02
  18.125  0.1939E+01  0.4285E+02
  18.135  0.1936E+01  0.4287E+02
  18.145  0.1933E+01  0.4289E+02
  18.155  0.1930E+01  0.4291E+02
  18.165  0.1926E+01  0.4293E+02
  18.175  0.1923E+01  0.4295E+02
  18.185  0.1920E+01  0.4297E+02
  18.195  0.1917E+01  0.4299E+02
  18.205  0.1913E+01  0.4301E+02
  18.215  0.1910E+01  0.4303E+02
  18.225  0.1907E+01  0.4305E+02
  18.235  0.1903E+01  0.4306E+02
  18.245  0.1900E+01  0.4308E+02
  18.255  0.1897E+01  0.4310E+02
  18.265  0.1894E+01  0.4312E+02
  18.275  0.1891E+01  0.4314E+02
  18.285  0.1887E+01  0.4316E+02
  18.295  0.1884E+01  0.4318E+02
  18.305  0.1881E+01  0.4320E+02
  18.315  0.1878E+01  0.4322E+02
  18.325  0.1875E+01  0.4323E+02
  18.335  0.1872E+01  0.4325E+02
  18.345  0.1869E+01  0.4327E+02
  18.355  0.1866E+01  0.4329E+02
  18.365  0.1863E+01  0.4331E+02
  18.375  0.1860E+01  0.4333E+02
  18.385  0.1857E+01  0.4335E+02
  18.395  0.1855E+01  0.4336E+02
  18.405  0.1852E+01  0.4338E+02
  18.415  0.1849E+01  0.4340E+02
  18.425  0.1846E+01  0.4342E+02
  18.435  0.1844E+01  0.4344E+02
  18.445  0.1841E+01  0.4346E+02
  18.455  0.1839E+01  0.4348E+02
  18.465  0.1836E+01  0.4349E+02
  18.475  0.1834E+01  0.4351E+02
  18.485  0.1831E+01  0.4353E+02
  18.495  0.1829E+01  0.4355E+02
  18.505  0.1826E+01  0.4357E+02
  18.515  0.1824E+01  0.4358E+02
  18.525  0.1822E+01  0.4360E+02
  18.535  0.1819E+01  0.4362E+02
  18.545  0.1817E+01  0.4364E+02
  18.555  0.1815E+01  0.4366E+02
  18.565  0.1813E+01  0.4368E+02
  18.575  0.1810E+01  0.4369E+02
  18.585  0.1808E+01  0.4371E+02
  18.595  0.1806E+01  0.4373E+02
  18.605  0.1804E+01  0.4375E+02
  18.615  0.1802E+01  0.4377E+02
  18.625  0.1799E+01  0.4378E+02
  18.635  0.1797E+01  0.4380E+02
  18.645  0.1795E+01  0.4382E+02
  18.655  0.1793E+01  0.4384E+02
  18.665  0.1791E+01  0.4386E+02
  18.675  0.1788E+01  0.4387E+02
  18.685  0.1786E+01  0.4389E+02
  18.695  0.1784E+01  0.4391E+02
  18.705  0.1781E+01  0.4393E+02
  18.715  0.1779E+01  0.4394E+02
  18.725  0.1777E+01  0.4396E+02
  18.735  0.1774E+01  0.4398E+02
  18.745  0.1772E+01  0.4400E+02
  18.755  0.1769E+01  0.4402E+02
  18.765  0.1767E+01  0.4403E+02
  18.775  0.1764E+01  0.4405E+02
  18.785  0.1761E+01  0.4407E+02
  18.795  0.1759E+01  0.4409E+02
  18.805  0.1756E+01  0.4410E+02
  18.815  0.1753E+01  0.4412E+02
  18.825  0.1750E+01  0.4414E+02
  18.835  0.1747E+01  0.4416E+02
  18.845  0.1744E+01  0.4417E+02
  18.855  0.1741E+01  0.4419E+02
  18.865  0.1738E+01  0.4421E+02
  18.875  0.1734E+01  0.4423E+02
  18.885  0.1731E+01  0.4424E+02
  18.895  0.1728E+01  0.4426E+02
  18.905  0.1724E+01  0.4428E+02
  18.915  0.1721E+01  0.4430E+02
  18.925  0.1717E+01  0.4431E+02
  18.935  0.1713E+01  0.4433E+02
  18.945  0.1709E+01  0.4435E+02
  18.955  0.1705E+01  0.4436E+02
  18.965  0.1701E+01  0.4438E+02
  18.975  0.1697E+01  0.4440E+02
  18.985  0.1693E+01  0.4441E+02
  18.995  0.1689E+01  0.4443E+02
  19.005  0.1685E+01  0.4445E+02
  19.015  0.1680E+01  0.4446E+02
  19.025  0.1676E+01  0.4448E+02
  19.035  0.1672E+01  0.4450E+02
  19.045  0.1667E+01  0.4452E+02
  19.055  0.1662E+01  0.4453E+02
  19.065  0.1658E+01  0.4455E+02
  19.075  0.1653E+01  0.4456E+02
  19.085  0.1648E+01  0.4458E+02
  19.095  0.1643E+01  0.4460E+02
  19.105  0.1638E+01  0.4461E+02
  19.115  0.1633E+01  0.4463E+02
  19.125  0.1628E+01  0.4465E+02
  19.135  0.1623E+01  0.4466E+02
  19.145  0.1618E+01  0.4468E+02
  19.155  0.1613E+01  0.4470E+02
  19.165  0.1608E+01  0.4471E+02
  19.175  0.1603E+01  0.4473E+02
  19.185  0.1598E+01  0.4474E+02
  19.195  0.1592E+01  0.4476E+02
  19.205  0.1587E+01  0.4478E+02
  19.215  0.1582E+01  0.4479E+02
  19.225  0.1577E+01  0.4481E+02
  19.235  0.1571E+01  0.4482E+02
  19.245  0.1566E+01  0.4484E+02
  19.255  0.1561E+01  0.4485E+02
  19.265  0.1556E+01  0.4487E+02
  19.275  0.1551E+01  0.4488E+02
  19.285  0.1546E+01  0.4490E+02
  19.295  0.1541E+01  0.4492E+02
  19.305  0.1535E+01  0.4493E+02
  19.315  0.1530E+01  0.4495E+02
  19.325  0.1526E+01  0.4496E+02
  19.335  0.1521E+01  0.4498E+02
  19.345  0.1516E+01  0.4499E+02
  19.355  0.1511E+01  0.4501E+02
  19.365  0.1507E+01  0.4502E+02
  19.375  0.1502E+01  0.4504E+02
  19.385  0.1498E+01  0.4505E+02
  19.395  0.1493E+01  0.4507E+02
  19.405  0.1489E+01  0.4508E+02
  19.415  0.1485E+01  0.4510E+02
  19.425  0.1481E+01  0.4511E+02
  19.435  0.1477E+01  0.4513E+02
  19.445  0.1473E+01  0.4514E+02
  19.455  0.1470E+01  0.4516E+02
  19.465  0.1466E+01  0.4517E+02
  19.475  0.1463E+01  0.4519E+02
  19.485  0.1460E+01  0.4520E+02
  19.495  0.1457E+01  0.4521E+02
  19.505  0.1454E+01  0.4523E+02
  19.515  0.1451E+01  0.4524E+02
  19.525  0.1449E+01  0.4526E+02
  19.535  0.1447E+01  0.4527E+02
  19.545  0.1445E+01  0.4529E+02
  19.555  0.1443E+01  0.4530E+02
  19.565  0.1441E+01  0.4532E+02
  19.575  0.1440E+01  0.4533E+02
  19.585  0.1438E+01  0.4534E+02
  19.595  0.1437E+01  0.4536E+02
  19.605  0.1437E+01  0.4537E+02
  19.615  0.1436E+01  0.4539E+02
  19.625  0.1436E+01  0.4540E+02
  19.635  0.1436E+01  0.4542E+02
  19.645  0.1436E+01  0.4543E+02
  19.655  0.1436E+01  0.4544E+02
  19.665  0.1437E+01  0.4546E+02
  19.675  0.1438E+01  0.4547E+02
  19.685  0.1439E+01  0.4549E+02
  19.695  0.1440E+01  0.4550E+02
  19.705  0.1441E+01  0.4552E+02
  19.715  0.1443E+01  0.4553E+02
  19.725  0.1445E+01  0.4555E+02
  19.735  0.1448E+01  0.4556E+02
  19.745  0.1450E+01  0.4557E+02
  19.755  0.1453E+01  0.4559E+02
  19.765  0.1456E+01  0.4560E+02
  19.775  0.1459E+01  0.4562E+02
  19.785  0.1462E+01  0.4563E+02
  19.795  0.1466E+01  0.4565E+02
  19.805  0.1470E+01  0.4566E+02
  19.815  0.1474E+01  0.4568E+02
  19.825  0.1478E+01  0.4569E+02
  19.835  0.1483E+01  0.4571E+02
  19.845  0.1488E+01  0.4572E+02
  19.855  0.1493E+01  0.4574E+02
  19.865  0.1498E+01  0.4575E+02
  19.875  0.1503E+01  0.4577E+02
  19.885  0.1508E+01  0.4578E+02
  19.895  0.1514E+01  0.4580E+02
  19.905  0.1520E+01  0.4581E+02
  19.915  0.1526E+01  0.4583E+02
  19.925  0.1532E+01  0.4584E+02
  19.935  0.1538E+01  0.4586E+02
  19.945  0.1544E+01  0.4587E+02
  19.955  0.1551E+01  0.4589E+02
  19.965  0.1557E+01  0.4590E+02
  19.975  0.1564E+01  0.4592E+02
  19.985  0.1570E+01  0.4594E+02
  19.995  0.1577E+01  0.4595E+02
  20.005  0.1584E+01  0.4597E+02
  20.015  0.1590E+01  0.4598E+02
  20.025  0.1597E+01  0.4600E+02
  20.035  0.1604E+01  0.4602E+02
  20.045  0.1611E+01  0.4603E+02
  20.055  0.1618E+01  0.4605E+02
  20.065  0.1624E+01  0.4606E+02
  20.075  0.1631E+01  0.4608E+02
  20.085  0.1638E+01  0.4610E+02
  20.095  0.1644E+01  0.4611E+02
  20.105  0.1651E+01  0.4613E+02
  20.115  0.1657E+01  0.4615E+02
  20.125  0.1663E+01  0.4616E+02
  20.135  0.1669E+01  0.4618E+02
  20.145  0.1675E+01  0.4620E+02
  20.155  0.1681E+01  0.4621E+02
  20.165  0.1687E+01  0.4623E+02
  20.175  0.1692E+01  0.4625E+02
  20.185  0.1697E+01  0.4626E+02
  20.195  0.1702E+01  0.4628E+02
  20.205  0.1707E+01  0.4630E+02
  20.215  0.1712E+01  0.4631E+02
  20.225  0.1716E+01  0.4633E+02
  20.235  0.1720E+01  0.4635E+02
  20.245  0.1724E+01  0.4637E+02
  20.255  0.1727E+01  0.4638E+02
  20.265  0.1731E+01  0.4640E+02
  20.275  0.1734E+01  0.4642E+02
  20.285  0.1736E+01  0.4644E+02
  20.295  0.1738E+01  0.4645E+02
  20.305  0.1740E+01  0.4647E+02
  20.315  0.1742E+01  0.4649E+02
  20.325  0.1743E+01  0.4651E+02
  20.335  0.1744E+01  0.4652E+02
  20.345  0.1744E+01  0.4654E+02
  20.355  0.1745E+01  0.4656E+02
  20.365  0.1744E+01  0.4658E+02
  20.375  0.1744E+01  0.4659E+02
  20.385  0.1743E+01  0.4661E+02
  20.395  0.1741E+01  0.4663E+02
  20.405  0.1739E+01  0.4664E+02
  20.415  0.1737E+01  0.4666E+02
  20.425  0.1734E+01  0.4668E+02
  20.435  0.1731E+01  0.4670E+02
  20.445  0.1728E+01  0.4671E+02
  20.455  0.1724E+01  0.4673E+02
  20.465  0.1720E+01  0.4675E+02
  20.475  0.1715E+01  0.4677E+02
  20.485  0.1710E+01  0.4678E+02
  20.495  0.1705E+01  0.4680E+02
  20.505  0.1699E+01  0.4682E+02
  20.515  0.1693E+01  0.4683E+02
  20.525  0.1686E+01  0.4685E+02
  20.535  0.1679E+01  0.4687E+02
  20.545  0.1672E+01  0.4688E+02
  20.555  0.1664E+01  0.4690E+02
  20.565  0.1656E+01  0.4692E+02
  20.575  0.1647E+01  0.4693E+02
  20.585  0.1638E+01  0.4695E+02
  20.595  0.1629E+01  0.4697E+02
  20.605  0.1620E+01  0.4698E+02
  20.615  0.1610E+01  0.4700E+02
  20.625  0.1599E+01  0.4701E+02
  20.635  0.1589E+01  0.4703E+02
  20.645  0.1578E+01  0.4705E+02
  20.655  0.1567E+01  0.4706E+02
  20.665  0.1555E+01  0.4708E+02
  20.675  0.1544E+01  0.4709E+02
  20.685  0.1532E+01  0.4711E+02
  20.695  0.1519E+01  0.4712E+02
  20.705  0.1507E+01  0.4714E+02
  20.715  0.1494E+01  0.4715E+02
  20.725  0.1481E+01  0.4717E+02
  20.735  0.1468E+01  0.4718E+02
  20.745  0.1454E+01  0.4720E+02
  20.755  0.1441E+01  0.4721E+02
  20.765  0.1427E+01  0.4723E+02
  20.775  0.1413E+01  0.4724E+02
  20.785  0.1399E+01  0.4725E+02
  20.795  0.1384E+01  0.4727E+02
  20.805  0.1370E+01  0.4728E+02
  20.815  0.1355E+01  0.4730E+02
  20.825  0.1340E+01  0.4731E+02
  20.835  0.1325E+01  0.4732E+02
  20.845  0.1310E+01  0.4734E+02
  20.855  0.1295E+01  0.4735E+02
  20.865  0.1280E+01  0.4736E+02
  20.875  0.1265E+01  0.4737E+02
  20.885  0.1249E+01  0.4739E+02
  20.895  0.1234E+01  0.4740E+02
  20.905  0.1219E+01  0.4741E+02
  20.915  0.1203E+01  0.4742E+02
  20.925  0.1188E+01  0.4743E+02
  20.935  0.1172E+01  0.4745E+02
  20.945  0.1156E+01  0.4746E+02
  20.955  0.1141E+01  0.4747E+02
  20.965  0.1125E+01  0.4748E+02
  20.975  0.1110E+01  0.4749E+02
  20.985  0.1094E+01  0.4750E+02
  20.995  0.1078E+01  0.4751E+02
  21.005  0.1063E+01  0.4752E+02
  21.015  0.1047E+01  0.4753E+02
  21.025  0.1032E+01  0.4754E+02
  21.035  0.1016E+01  0.4755E+02
  21.045  0.1001E+01  0.4756E+02
  21.055  0.9857E+00  0.4757E+02
  21.065  0.9704E+00  0.4758E+02
  21.075  0.9552E+00  0.4759E+02
  21.085  0.9401E+00  0.4760E+02
  21.095  0.9250E+00  0.4761E+02
  21.105  0.9100E+00  0.4762E+02
  21.115  0.8951E+00  0.4763E+02
  21.125  0.8803E+00  0.4764E+02
  21.135  0.8655E+00  0.4765E+02
  21.145  0.8509E+00  0.4766E+02
  21.155  0.8363E+00  0.4767E+02
  21.165  0.8219E+00  0.4767E+02
  21.175  0.8075E+00  0.4768E+02
  21.185  0.7933E+00  0.4769E+02
  21.195  0.7792E+00  0.4770E+02
  21.205  0.7652E+00  0.4770E+02
  21.215  0.7513E+00  0.4771E+02
  21.225  0.7375E+00  0.4772E+02
  21.235  0.7238E+00  0.4773E+02
  21.245  0.7102E+00  0.4773E+02
  21.255  0.6968E+00  0.4774E+02
  21.265  0.6835E+00  0.4775E+02
  21.275  0.6703E+00  0.4775E+02
  21.285  0.6573E+00  0.4776E+02
  21.295  0.6443E+00  0.4777E+02
  21.305  0.6315E+00  0.4777E+02
  21.315  0.6189E+00  0.4778E+02
  21.325  0.6063E+00  0.4779E+02
  21.335  0.5939E+00  0.4779E+02
  21.345  0.5817E+00  0.4780E+02
  21.355  0.5696E+00  0.4780E+02
  21.365  0.5576E+00  0.4781E+02
  21.375  0.5457E+00  0.4781E+02
  21.385  0.5340E+00  0.4782E+02
  21.395  0.5224E+00  0.4783E+02
  21.405  0.5110E+00  0.4783E+02
  21.415  0.4997E+00  0.4784E+02
  21.425  0.4886E+00  0.4784E+02
  21.435  0.4776E+00  0.4784E+02
  21.445  0.4667E+00  0.4785E+02
  21.455  0.4560E+00  0.4785E+02
  21.465  0.4454E+00  0.4786E+02
  21.475  0.4350E+00  0.4786E+02
  21.485  0.4247E+00  0.4787E+02
  21.495  0.4146E+00  0.4787E+02
  21.505  0.4046E+00  0.4788E+02
  21.515  0.3948E+00  0.4788E+02
  21.525  0.3851E+00  0.4788E+02
  21.535  0.3755E+00  0.4789E+02
  21.545  0.3661E+00  0.4789E+02
  21.555  0.3569E+00  0.4789E+02
  21.565  0.3478E+00  0.4790E+02
  21.575  0.3388E+00  0.4790E+02
  21.585  0.3300E+00  0.4790E+02
  21.595  0.3213E+00  0.4791E+02
  21.605  0.3128E+00  0.4791E+02
  21.615  0.3044E+00  0.4791E+02
  21.625  0.2962E+00  0.4792E+02
  21.635  0.2881E+00  0.4792E+02
  21.645  0.2802E+00  0.4792E+02
  21.655  0.2724E+00  0.4793E+02
  21.665  0.2648E+00  0.4793E+02
  21.675  0.2573E+00  0.4793E+02
  21.685  0.2499E+00  0.4793E+02
  21.695  0.2427E+00  0.4794E+02
  21.705  0.2356E+00  0.4794E+02
  21.715  0.2287E+00  0.4794E+02
  21.725  0.2219E+00  0.4794E+02
  21.735  0.2152E+00  0.4794E+02
  21.745  0.2087E+00  0.4795E+02
  21.755  0.2024E+00  0.4795E+02
  21.765  0.1961E+00  0.4795E+02
  21.775  0.1900E+00  0.4795E+02
  21.785  0.1841E+00  0.4795E+02
  21.795  0.1782E+00  0.4796E+02
  21.805  0.1726E+00  0.4796E+02
  21.815  0.1670E+00  0.4796E+02
  21.825  0.1616E+00  0.4796E+02
  21.835  0.1563E+00  0.4796E+02
  21.845  0.1511E+00  0.4796E+02
  21.855  0.1460E+00  0.4797E+02
  21.865  0.1411E+00  0.4797E+02
  21.875  0.1363E+00  0.4797E+02
  21.885  0.1316E+00  0.4797E+02
  21.895  0.1271E+00  0.4797E+02
  21.905  0.1226E+00  0.4797E+02
  21.915  0.1183E+00  0.4797E+02
  21.925  0.1141E+00  0.4797E+02
  21.935  0.1100E+00  0.4798E+02
  21.945  0.1060E+00  0.4798E+02
  21.955  0.1022E+00  0.4798E+02
  21.965  0.9840E-01  0.4798E+02
  21.975  0.9474E-01  0.4798E+02
  21.985  0.9119E-01  0.4798E+02
  21.995  0.8775E-01  0.4798E+02
  22.005  0.8441E-01  0.4798E+02
  22.015  0.8117E-01  0.4798E+02
  22.025  0.7802E-01  0.4798E+02
  22.035  0.7497E-01  0.4798E+02
  22.045  0.7202E-01  0.4799E+02
  22.055  0.6916E-01  0.4799E+02
  22.065  0.6639E-01  0.4799E+02
  22.075  0.6371E-01  0.4799E+02
  22.085  0.6111E-01  0.4799E+02
  22.095  0.5860E-01  0.4799E+02
  22.105  0.5618E-01  0.4799E+02
  22.115  0.5383E-01  0.4799E+02
  22.125  0.5157E-01  0.4799E+02
  22.135  0.4938E-01  0.4799E+02
  22.145  0.4727E-01  0.4799E+02
  22.155  0.4523E-01  0.4799E+02
  22.165  0.4326E-01  0.4799E+02
  22.175  0.4137E-01  0.4799E+02
  22.185  0.3954E-01  0.4799E+02
  22.195  0.3778E-01  0.4799E+02
  22.205  0.3608E-01  0.4799E+02
  22.215  0.3445E-01  0.4799E+02
  22.225  0.3288E-01  0.4799E+02
  22.235  0.3137E-01  0.4799E+02
  22.245  0.2992E-01  0.4799E+02
  22.255  0.2852E-01  0.4799E+02
  22.265  0.2718E-01  0.4800E+02
  22.275  0.2589E-01  0.4800E+02
  22.285  0.2465E-01  0.4800E+02
  22.295  0.2347E-01  0.4800E+02
  22.305  0.2233E-01  0.4800E+02
  22.315  0.2124E-01  0.4800E+02
  22.325  0.2019E-01  0.4800E+02
  22.335  0.1919E-01  0.4800E+02
  22.345  0.1823E-01  0.4800E+02
  22.355  0.1731E-01  0.4800E+02
  22.365  0.1643E-01  0.4800E+02
  22.375  0.1559E-01  0.4800E+02
  22.385  0.1478E-01  0.4800E+02
  22.395  0.1402E-01  0.4800E+02
  22.405  0.1328E-01  0.4800E+02
  22.415  0.1258E-01  0.4800E+02
  22.425  0.1191E-01  0.4800E+02
  22.435  0.1128E-01  0.4800E+02
  22.445  0.1067E-01  0.4800E+02
  22.455  0.1009E-01  0.4800E+02
  22.465  0.9537E-02  0.4800E+02
  22.475  0.9012E-02  0.4800E+02
  22.485  0.8512E-02  0.4800E+02
  22.495  0.8036E-02  0.4800E+02
  22.505  0.7583E-02  0.4800E+02
  22.515  0.7153E-02  0.4800E+02
  22.525  0.6744E-02  0.4800E+02
  22.535  0.6356E-02  0.4800E+02
  22.545  0.5988E-02  0.4800E+02
  22.555  0.5638E-02  0.4800E+02
  22.565  0.5307E-02  0.4800E+02
  22.575  0.4992E-02  0.4800E+02
  22.585  0.4695E-02  0.4800E+02
  22.595  0.4413E-02  0.4800E+02
  22.605  0.4146E-02  0.4800E+02
  22.615  0.3894E-02  0.4800E+02
  22.625  0.3655E-02  0.4800E+02
  22.635  0.3429E-02  0.4800E+02
  22.645  0.3216E-02  0.4800E+02
  22.655  0.3014E-02  0.4800E+02
  22.665  0.2824E-02  0.4800E+02
  22.675  0.2645E-02  0.4800E+02
  22.685  0.2476E-02  0.4800E+02
  22.695  0.2317E-02  0.4800E+02
  22.705  0.2167E-02  0.4800E+02
  22.715  0.2025E-02  0.4800E+02
  22.725  0.1892E-02  0.4800E+02
  22.735  0.1767E-02  0.4800E+02
  22.745  0.1650E-02  0.4800E+02
  22.755  0.1539E-02  0.4800E+02
  22.765  0.1435E-02  0.4800E+02
  22.775  0.1338E-02  0.4800E+02
  22.785  0.1246E-02  0.4800E+02
  22.795  0.1161E-02  0.4800E+02
  22.805  0.1080E-02  0.4800E+02
  22.815  0.1005E-02  0.4800E+02
  22.825  0.9343E-03  0.4800E+02
  22.835  0.8683E-03  0.4800E+02
  22.845  0.8066E-03  0.4800E+02
  22.855  0.7489E-03  0.4800E+02
  22.865  0.6949E-03  0.4800E+02
  22.875  0.6446E-03  0.4800E+02
  22.885  0.5976E-03  0.4800E+02
  22.895  0.5537E-03  0.4800E+02
  22.905  0.5128E-03  0.4800E+02
  22.915  0.4747E-03  0.4800E+02
  22.925  0.4391E-03  0.4800E+02
  22.935  0.4061E-03  0.4800E+02
  22.945  0.3753E-03  0.4800E+02
  22.955  0.3467E-03  0.4800E+02
  22.965  0.3201E-03  0.4800E+02
  22.975  0.2954E-03  0.4800E+02
  22.985  0.2725E-03  0.4800E+02
  22.995  0.2512E-03  0.4800E+02
  23.005  0.2314E-03  0.4800E+02
  23.015  0.2131E-03  0.4800E+02
  23.025  0.1961E-03  0.4800E+02
  23.035  0.1804E-03  0.4800E+02
  23.045  0.1659E-03  0.4800E+02
  23.055  0.1525E-03  0.4800E+02
  23.065  0.1400E-03  0.4800E+02
  23.075  0.1285E-03  0.4800E+02
  23.085  0.1179E-03  0.4800E+02
  23.095  0.1082E-03  0.4800E+02
  23.105  0.9912E-04  0.4800E+02
  23.115  0.9080E-04  0.4800E+02
  23.125  0.8313E-04  0.4800E+02
  23.135  0.7606E-04  0.4800E+02
  23.145  0.6956E-04  0.4800E+02
  23.155  0.6358E-04  0.4800E+02
  23.165  0.5809E-04  0.4800E+02
  23.175  0.5304E-04  0.4800E+02
  23.185  0.4840E-04  0.4800E+02
  23.195  0.4414E-04  0.4800E+02
  23.205  0.4024E-04  0.4800E+02
  23.215  0.3666E-04  0.4800E+02
  23.225  0.3338E-04  0.4800E+02
  23.235  0.3038E-04  0.4800E+02
  23.245  0.2763E-04  0.4800E+02
  23.255  0.2511E-04  0.4800E+02
  23.265  0.2282E-04  0.4800E+02
  23.275  0.2072E-04  0.4800E+02
  23.285  0.1880E-04  0.4800E+02
  23.295  0.1705E-04  0.4800E+02
  23.305  0.1546E-04  0.4800E+02
  23.315  0.1400E-04  0.4800E+02
  23.325  0.1268E-04  0.4800E+02
  23.335  0.1148E-04  0.4800E+02
  23.345  0.1038E-04  0.4800E+02
  23.355  0.9382E-05  0.4800E+02
  23.365  0.8476E-05  0.4800E+02
  23.375  0.7653E-05  0.4800E+02
  23.385  0.6906E-05  0.4800E+02
  23.395  0.6228E-05  0.4800E+02
  23.405  0.5614E-05  0.4800E+02
  23.415  0.5057E-05  0.4800E+02
  23.425  0.4553E-05  0.4800E+02
  23.435  0.4096E-05  0.4800E+02
  23.445  0.3684E-05  0.4800E+02
  23.455  0.3311E-05  0.4800E+02
  23.465  0.2974E-05  0.4800E+02
  23.475  0.2670E-05  0.4800E+02
  23.485  0.2395E-05  0.4800E+02
  23.495  0.2148E-05  0.4800E+02
  23.505  0.1925E-05  0.4800E+02
  23.515  0.1724E-05  0.4800E+02
  23.525  0.1543E-05  0.4800E+02
  23.535  0.1380E-05  0.4800E+02
  23.545  0.1234E-05  0.4800E+02
  23.555  0.1103E-05  0.4800E+02
  23.565  0.9846E-06  0.4800E+02
  23.575  0.8787E-06  0.4800E+02
  23.585  0.7837E-06  0.4800E+02
  23.595  0.6986E-06  0.4800E+02
  23.605  0.6224E-06  0.4800E+02
