#  E (eV)   dos(E)     Int dos(E) EFermi =    7.979 eV
 -15.481  0.5016E-03  0.5016E-05
 -15.471  0.5620E-03  0.1064E-04
 -15.461  0.6293E-03  0.1693E-04
 -15.451  0.7042E-03  0.2397E-04
 -15.441  0.7874E-03  0.3184E-04
 -15.431  0.8800E-03  0.4064E-04
 -15.421  0.9828E-03  0.5047E-04
 -15.411  0.1097E-02  0.6144E-04
 -15.401  0.1224E-02  0.7368E-04
 -15.391  0.1364E-02  0.8731E-04
 -15.381  0.1519E-02  0.1025E-03
 -15.371  0.1691E-02  0.1194E-03
 -15.361  0.1881E-02  0.1382E-03
 -15.351  0.2092E-02  0.1591E-03
 -15.341  0.2324E-02  0.1824E-03
 -15.331  0.2580E-02  0.2082E-03
 -15.321  0.2863E-02  0.2368E-03
 -15.311  0.3175E-02  0.2686E-03
 -15.301  0.3519E-02  0.3038E-03
 -15.291  0.3897E-02  0.3427E-03
 -15.281  0.4313E-02  0.3859E-03
 -15.271  0.4770E-02  0.4336E-03
 -15.261  0.5273E-02  0.4863E-03
 -15.251  0.5825E-02  0.5445E-03
 -15.241  0.6430E-02  0.6088E-03
 -15.231  0.7094E-02  0.6798E-03
 -15.221  0.7821E-02  0.7580E-03
 -15.211  0.8617E-02  0.8442E-03
 -15.201  0.9488E-02  0.9390E-03
 -15.191  0.1044E-01  0.1043E-02
 -15.181  0.1148E-01  0.1158E-02
 -15.171  0.1262E-01  0.1284E-02
 -15.161  0.1386E-01  0.1423E-02
 -15.151  0.1521E-01  0.1575E-02
 -15.141  0.1668E-01  0.1742E-02
 -15.131  0.1829E-01  0.1925E-02
 -15.121  0.2004E-01  0.2125E-02
 -15.111  0.2193E-01  0.2345E-02
 -15.101  0.2400E-01  0.2585E-02
 -15.091  0.2624E-01  0.2847E-02
 -15.081  0.2867E-01  0.3134E-02
 -15.071  0.3131E-01  0.3447E-02
 -15.061  0.3417E-01  0.3788E-02
 -15.051  0.3726E-01  0.4161E-02
 -15.041  0.4062E-01  0.4567E-02
 -15.031  0.4424E-01  0.5010E-02
 -15.021  0.4816E-01  0.5491E-02
 -15.011  0.5239E-01  0.6015E-02
 -15.001  0.5696E-01  0.6585E-02
 -14.991  0.6188E-01  0.7203E-02
 -14.981  0.6719E-01  0.7875E-02
 -14.971  0.7291E-01  0.8604E-02
 -14.961  0.7907E-01  0.9395E-02
 -14.951  0.8569E-01  0.1025E-01
 -14.941  0.9281E-01  0.1118E-01
 -14.931  0.1005E+00  0.1218E-01
 -14.921  0.1087E+00  0.1327E-01
 -14.911  0.1175E+00  0.1445E-01
 -14.901  0.1269E+00  0.1572E-01
 -14.891  0.1370E+00  0.1709E-01
 -14.881  0.1479E+00  0.1856E-01
 -14.871  0.1594E+00  0.2016E-01
 -14.861  0.1718E+00  0.2188E-01
 -14.851  0.1851E+00  0.2373E-01
 -14.841  0.1992E+00  0.2572E-01
 -14.831  0.2142E+00  0.2786E-01
 -14.821  0.2303E+00  0.3016E-01
 -14.811  0.2474E+00  0.3264E-01
 -14.801  0.2657E+00  0.3530E-01
 -14.791  0.2850E+00  0.3815E-01
 -14.781  0.3057E+00  0.4120E-01
 -14.771  0.3276E+00  0.4448E-01
 -14.761  0.3508E+00  0.4799E-01
 -14.751  0.3755E+00  0.5174E-01
 -14.741  0.4017E+00  0.5576E-01
 -14.731  0.4294E+00  0.6005E-01
 -14.721  0.4588E+00  0.6464E-01
 -14.711  0.4898E+00  0.6954E-01
 -14.701  0.5227E+00  0.7477E-01
 -14.691  0.5574E+00  0.8034E-01
 -14.681  0.5941E+00  0.8628E-01
 -14.671  0.6327E+00  0.9261E-01
 -14.661  0.6735E+00  0.9934E-01
 -14.651  0.7165E+00  0.1065E+00
 -14.641  0.7618E+00  0.1141E+00
 -14.631  0.8094E+00  0.1222E+00
 -14.621  0.8595E+00  0.1308E+00
 -14.611  0.9121E+00  0.1399E+00
 -14.601  0.9674E+00  0.1496E+00
 -14.591  0.1025E+01  0.1599E+00
 -14.581  0.1086E+01  0.1707E+00
 -14.571  0.1150E+01  0.1822E+00
 -14.561  0.1217E+01  0.1944E+00
 -14.551  0.1286E+01  0.2073E+00
 -14.541  0.1359E+01  0.2209E+00
 -14.531  0.1436E+01  0.2352E+00
 -14.521  0.1515E+01  0.2504E+00
 -14.511  0.1599E+01  0.2663E+00
 -14.501  0.1685E+01  0.2832E+00
 -14.491  0.1776E+01  0.3010E+00
 -14.481  0.1870E+01  0.3197E+00
 -14.471  0.1968E+01  0.3393E+00
 -14.461  0.2069E+01  0.3600E+00
 -14.451  0.2175E+01  0.3818E+00
 -14.441  0.2285E+01  0.4046E+00
 -14.431  0.2399E+01  0.4286E+00
 -14.421  0.2517E+01  0.4538E+00
 -14.411  0.2639E+01  0.4802E+00
 -14.401  0.2766E+01  0.5078E+00
 -14.391  0.2897E+01  0.5368E+00
 -14.381  0.3033E+01  0.5671E+00
 -14.371  0.3173E+01  0.5989E+00
 -14.361  0.3317E+01  0.6320E+00
 -14.351  0.3466E+01  0.6667E+00
 -14.341  0.3620E+01  0.7029E+00
 -14.331  0.3778E+01  0.7407E+00
 -14.321  0.3941E+01  0.7801E+00
 -14.311  0.4108E+01  0.8212E+00
 -14.301  0.4280E+01  0.8640E+00
 -14.291  0.4457E+01  0.9085E+00
 -14.281  0.4638E+01  0.9549E+00
 -14.271  0.4824E+01  0.1003E+01
 -14.261  0.5015E+01  0.1053E+01
 -14.251  0.5210E+01  0.1105E+01
 -14.241  0.5409E+01  0.1160E+01
 -14.231  0.5613E+01  0.1216E+01
 -14.221  0.5821E+01  0.1274E+01
 -14.211  0.6034E+01  0.1334E+01
 -14.201  0.6251E+01  0.1397E+01
 -14.191  0.6471E+01  0.1461E+01
 -14.181  0.6696E+01  0.1528E+01
 -14.171  0.6925E+01  0.1598E+01
 -14.161  0.7157E+01  0.1669E+01
 -14.151  0.7393E+01  0.1743E+01
 -14.141  0.7632E+01  0.1819E+01
 -14.131  0.7875E+01  0.1898E+01
 -14.121  0.8120E+01  0.1979E+01
 -14.111  0.8369E+01  0.2063E+01
 -14.101  0.8620E+01  0.2149E+01
 -14.091  0.8874E+01  0.2238E+01
 -14.081  0.9131E+01  0.2329E+01
 -14.071  0.9389E+01  0.2423E+01
 -14.061  0.9649E+01  0.2520E+01
 -14.051  0.9911E+01  0.2619E+01
 -14.041  0.1017E+02  0.2721E+01
 -14.031  0.1044E+02  0.2825E+01
 -14.021  0.1070E+02  0.2932E+01
 -14.011  0.1097E+02  0.3042E+01
 -14.001  0.1124E+02  0.3154E+01
 -13.991  0.1150E+02  0.3269E+01
 -13.981  0.1177E+02  0.3387E+01
 -13.971  0.1204E+02  0.3507E+01
 -13.961  0.1230E+02  0.3630E+01
 -13.951  0.1256E+02  0.3756E+01
 -13.941  0.1283E+02  0.3884E+01
 -13.931  0.1309E+02  0.4015E+01
 -13.921  0.1335E+02  0.4148E+01
 -13.911  0.1360E+02  0.4284E+01
 -13.901  0.1385E+02  0.4423E+01
 -13.891  0.1410E+02  0.4564E+01
 -13.881  0.1435E+02  0.4708E+01
 -13.871  0.1459E+02  0.4853E+01
 -13.861  0.1483E+02  0.5002E+01
 -13.851  0.1507E+02  0.5152E+01
 -13.841  0.1530E+02  0.5305E+01
 -13.831  0.1552E+02  0.5461E+01
 -13.821  0.1574E+02  0.5618E+01
 -13.811  0.1596E+02  0.5778E+01
 -13.801  0.1617E+02  0.5939E+01
 -13.791  0.1637E+02  0.6103E+01
 -13.781  0.1656E+02  0.6269E+01
 -13.771  0.1675E+02  0.6436E+01
 -13.761  0.1693E+02  0.6606E+01
 -13.751  0.1711E+02  0.6777E+01
 -13.741  0.1727E+02  0.6949E+01
 -13.731  0.1743E+02  0.7124E+01
 -13.721  0.1758E+02  0.7300E+01
 -13.711  0.1773E+02  0.7477E+01
 -13.701  0.1786E+02  0.7655E+01
 -13.691  0.1798E+02  0.7835E+01
 -13.681  0.1810E+02  0.8016E+01
 -13.671  0.1821E+02  0.8198E+01
 -13.661  0.1830E+02  0.8381E+01
 -13.651  0.1839E+02  0.8565E+01
 -13.641  0.1847E+02  0.8750E+01
 -13.631  0.1854E+02  0.8935E+01
 -13.621  0.1860E+02  0.9121E+01
 -13.611  0.1865E+02  0.9308E+01
 -13.601  0.1868E+02  0.9495E+01
 -13.591  0.1871E+02  0.9682E+01
 -13.581  0.1873E+02  0.9869E+01
 -13.571  0.1874E+02  0.1006E+02
 -13.561  0.1874E+02  0.1024E+02
 -13.551  0.1873E+02  0.1043E+02
 -13.541  0.1870E+02  0.1062E+02
 -13.531  0.1867E+02  0.1080E+02
 -13.521  0.1863E+02  0.1099E+02
 -13.511  0.1858E+02  0.1118E+02
 -13.501  0.1851E+02  0.1136E+02
 -13.491  0.1844E+02  0.1155E+02
 -13.481  0.1836E+02  0.1173E+02
 -13.471  0.1827E+02  0.1191E+02
 -13.461  0.1816E+02  0.1209E+02
 -13.451  0.1805E+02  0.1227E+02
 -13.441  0.1793E+02  0.1245E+02
 -13.431  0.1781E+02  0.1263E+02
 -13.421  0.1767E+02  0.1281E+02
 -13.411  0.1752E+02  0.1298E+02
 -13.401  0.1737E+02  0.1316E+02
 -13.391  0.1721E+02  0.1333E+02
 -13.381  0.1704E+02  0.1350E+02
 -13.371  0.1686E+02  0.1367E+02
 -13.361  0.1667E+02  0.1384E+02
 -13.351  0.1648E+02  0.1400E+02
 -13.341  0.1628E+02  0.1416E+02
 -13.331  0.1608E+02  0.1432E+02
 -13.321  0.1586E+02  0.1448E+02
 -13.311  0.1565E+02  0.1464E+02
 -13.301  0.1542E+02  0.1479E+02
 -13.291  0.1520E+02  0.1495E+02
 -13.281  0.1496E+02  0.1509E+02
 -13.271  0.1473E+02  0.1524E+02
 -13.261  0.1448E+02  0.1539E+02
 -13.251  0.1424E+02  0.1553E+02
 -13.241  0.1399E+02  0.1567E+02
 -13.231  0.1373E+02  0.1581E+02
 -13.221  0.1348E+02  0.1594E+02
 -13.211  0.1322E+02  0.1607E+02
 -13.201  0.1296E+02  0.1620E+02
 -13.191  0.1270E+02  0.1633E+02
 -13.181  0.1243E+02  0.1645E+02
 -13.171  0.1217E+02  0.1658E+02
 -13.161  0.1190E+02  0.1670E+02
 -13.151  0.1163E+02  0.1681E+02
 -13.141  0.1136E+02  0.1693E+02
 -13.131  0.1110E+02  0.1704E+02
 -13.121  0.1083E+02  0.1714E+02
 -13.111  0.1056E+02  0.1725E+02
 -13.101  0.1030E+02  0.1735E+02
 -13.091  0.1003E+02  0.1745E+02
 -13.081  0.9765E+01  0.1755E+02
 -13.071  0.9503E+01  0.1765E+02
 -13.061  0.9242E+01  0.1774E+02
 -13.051  0.8983E+01  0.1783E+02
 -13.041  0.8727E+01  0.1792E+02
 -13.031  0.8473E+01  0.1800E+02
 -13.021  0.8221E+01  0.1808E+02
 -13.011  0.7973E+01  0.1816E+02
 -13.001  0.7727E+01  0.1824E+02
 -12.991  0.7485E+01  0.1831E+02
 -12.981  0.7246E+01  0.1839E+02
 -12.971  0.7011E+01  0.1846E+02
 -12.961  0.6779E+01  0.1852E+02
 -12.951  0.6552E+01  0.1859E+02
 -12.941  0.6328E+01  0.1865E+02
 -12.931  0.6109E+01  0.1871E+02
 -12.921  0.5893E+01  0.1877E+02
 -12.911  0.5682E+01  0.1883E+02
 -12.901  0.5475E+01  0.1888E+02
 -12.891  0.5273E+01  0.1894E+02
 -12.881  0.5075E+01  0.1899E+02
 -12.871  0.4882E+01  0.1904E+02
 -12.861  0.4693E+01  0.1908E+02
 -12.851  0.4509E+01  0.1913E+02
 -12.841  0.4330E+01  0.1917E+02
 -12.831  0.4156E+01  0.1921E+02
 -12.821  0.3986E+01  0.1925E+02
 -12.811  0.3820E+01  0.1929E+02
 -12.801  0.3660E+01  0.1933E+02
 -12.791  0.3504E+01  0.1936E+02
 -12.781  0.3353E+01  0.1940E+02
 -12.771  0.3206E+01  0.1943E+02
 -12.761  0.3064E+01  0.1946E+02
 -12.751  0.2927E+01  0.1949E+02
 -12.741  0.2794E+01  0.1952E+02
 -12.731  0.2665E+01  0.1954E+02
 -12.721  0.2541E+01  0.1957E+02
 -12.711  0.2421E+01  0.1959E+02
 -12.701  0.2306E+01  0.1962E+02
 -12.691  0.2194E+01  0.1964E+02
 -12.681  0.2087E+01  0.1966E+02
 -12.671  0.1984E+01  0.1968E+02
 -12.661  0.1885E+01  0.1970E+02
 -12.651  0.1790E+01  0.1972E+02
 -12.641  0.1698E+01  0.1973E+02
 -12.631  0.1610E+01  0.1975E+02
 -12.621  0.1526E+01  0.1976E+02
 -12.611  0.1445E+01  0.1978E+02
 -12.601  0.1368E+01  0.1979E+02
 -12.591  0.1294E+01  0.1981E+02
 -12.581  0.1224E+01  0.1982E+02
 -12.571  0.1156E+01  0.1983E+02
 -12.561  0.1092E+01  0.1984E+02
 -12.551  0.1030E+01  0.1985E+02
 -12.541  0.9717E+00  0.1986E+02
 -12.531  0.9159E+00  0.1987E+02
 -12.521  0.8627E+00  0.1988E+02
 -12.511  0.8121E+00  0.1989E+02
 -12.501  0.7641E+00  0.1989E+02
 -12.491  0.7184E+00  0.1990E+02
 -12.481  0.6751E+00  0.1991E+02
 -12.471  0.6339E+00  0.1991E+02
 -12.461  0.5950E+00  0.1992E+02
 -12.451  0.5580E+00  0.1993E+02
 -12.441  0.5231E+00  0.1993E+02
 -12.431  0.4900E+00  0.1994E+02
 -12.421  0.4587E+00  0.1994E+02
 -12.411  0.4292E+00  0.1994E+02
 -12.401  0.4013E+00  0.1995E+02
 -12.391  0.3750E+00  0.1995E+02
 -12.381  0.3502E+00  0.1996E+02
 -12.371  0.3269E+00  0.1996E+02
 -12.361  0.3049E+00  0.1996E+02
 -12.351  0.2842E+00  0.1996E+02
 -12.341  0.2647E+00  0.1997E+02
 -12.331  0.2464E+00  0.1997E+02
 -12.321  0.2293E+00  0.1997E+02
 -12.311  0.2132E+00  0.1997E+02
 -12.301  0.1981E+00  0.1998E+02
 -12.291  0.1840E+00  0.1998E+02
 -12.281  0.1707E+00  0.1998E+02
 -12.271  0.1584E+00  0.1998E+02
 -12.261  0.1468E+00  0.1998E+02
 -12.251  0.1360E+00  0.1998E+02
 -12.241  0.1259E+00  0.1999E+02
 -12.231  0.1165E+00  0.1999E+02
 -12.221  0.1077E+00  0.1999E+02
 -12.211  0.9949E-01  0.1999E+02
 -12.201  0.9187E-01  0.1999E+02
 -12.191  0.8478E-01  0.1999E+02
 -12.181  0.7819E-01  0.1999E+02
 -12.171  0.7207E-01  0.1999E+02
 -12.161  0.6638E-01  0.1999E+02
 -12.151  0.6110E-01  0.1999E+02
 -12.141  0.5621E-01  0.1999E+02
 -12.131  0.5168E-01  0.1999E+02
 -12.121  0.4748E-01  0.2000E+02
 -12.111  0.4359E-01  0.2000E+02
 -12.101  0.4000E-01  0.2000E+02
 -12.091  0.3668E-01  0.2000E+02
 -12.081  0.3362E-01  0.2000E+02
 -12.071  0.3079E-01  0.2000E+02
 -12.061  0.2818E-01  0.2000E+02
 -12.051  0.2577E-01  0.2000E+02
 -12.041  0.2356E-01  0.2000E+02
 -12.031  0.2152E-01  0.2000E+02
 -12.021  0.1965E-01  0.2000E+02
 -12.011  0.1793E-01  0.2000E+02
 -12.001  0.1635E-01  0.2000E+02
 -11.991  0.1489E-01  0.2000E+02
 -11.981  0.1356E-01  0.2000E+02
 -11.971  0.1234E-01  0.2000E+02
 -11.961  0.1122E-01  0.2000E+02
 -11.951  0.1020E-01  0.2000E+02
 -11.941  0.9265E-02  0.2000E+02
 -11.931  0.8410E-02  0.2000E+02
 -11.921  0.7629E-02  0.2000E+02
 -11.911  0.6916E-02  0.2000E+02
 -11.901  0.6265E-02  0.2000E+02
 -11.891  0.5672E-02  0.2000E+02
 -11.881  0.5132E-02  0.2000E+02
 -11.871  0.4641E-02  0.2000E+02
 -11.861  0.4193E-02  0.2000E+02
 -11.851  0.3787E-02  0.2000E+02
 -11.841  0.3417E-02  0.2000E+02
 -11.831  0.3082E-02  0.2000E+02
 -11.821  0.2778E-02  0.2000E+02
 -11.811  0.2502E-02  0.2000E+02
 -11.801  0.2252E-02  0.2000E+02
 -11.791  0.2026E-02  0.2000E+02
 -11.781  0.1821E-02  0.2000E+02
 -11.771  0.1636E-02  0.2000E+02
 -11.761  0.1469E-02  0.2000E+02
 -11.751  0.1318E-02  0.2000E+02
 -11.741  0.1182E-02  0.2000E+02
 -11.731  0.1059E-02  0.2000E+02
 -11.721  0.9482E-03  0.2000E+02
 -11.711  0.8485E-03  0.2000E+02
 -11.701  0.7588E-03  0.2000E+02
 -11.691  0.6782E-03  0.2000E+02
 -11.681  0.6057E-03  0.2000E+02
 -11.671  0.5407E-03  0.2000E+02
 -11.661  0.4823E-03  0.2000E+02
 -11.651  0.4299E-03  0.2000E+02
 -11.641  0.3830E-03  0.2000E+02
 -11.631  0.3410E-03  0.2000E+02
 -11.621  0.3033E-03  0.2000E+02
 -11.611  0.2697E-03  0.2000E+02
 -11.601  0.2396E-03  0.2000E+02
 -11.591  0.2128E-03  0.2000E+02
 -11.581  0.1888E-03  0.2000E+02
 -11.571  0.1674E-03  0.2000E+02
 -11.561  0.1484E-03  0.2000E+02
 -11.551  0.1314E-03  0.2000E+02
 -11.541  0.1163E-03  0.2000E+02
 -11.531  0.1029E-03  0.2000E+02
 -11.521  0.9093E-04  0.2000E+02
 -11.511  0.8032E-04  0.2000E+02
 -11.501  0.7090E-04  0.2000E+02
 -11.491  0.6254E-04  0.2000E+02
 -11.481  0.5514E-04  0.2000E+02
 -11.471  0.4858E-04  0.2000E+02
 -11.461  0.4277E-04  0.2000E+02
 -11.451  0.3763E-04  0.2000E+02
 -11.441  0.3309E-04  0.2000E+02
 -11.431  0.2907E-04  0.2000E+02
 -11.421  0.2553E-04  0.2000E+02
 -11.411  0.2240E-04  0.2000E+02
 -11.401  0.1965E-04  0.2000E+02
 -11.391  0.1722E-04  0.2000E+02
 -11.381  0.1508E-04  0.2000E+02
 -11.371  0.1320E-04  0.2000E+02
 -11.361  0.1155E-04  0.2000E+02
 -11.351  0.1009E-04  0.2000E+02
 -11.341  0.8816E-05  0.2000E+02
 -11.331  0.7696E-05  0.2000E+02
 -11.321  0.6714E-05  0.2000E+02
 -11.311  0.5853E-05  0.2000E+02
 -11.301  0.5100E-05  0.2000E+02
 -11.291  0.4440E-05  0.2000E+02
 -11.281  0.3863E-05  0.2000E+02
 -11.271  0.3359E-05  0.2000E+02
 -11.261  0.2919E-05  0.2000E+02
 -11.251  0.2535E-05  0.2000E+02
 -11.241  0.2200E-05  0.2000E+02
 -11.231  0.1908E-05  0.2000E+02
 -11.221  0.1653E-05  0.2000E+02
 -11.211  0.1432E-05  0.2000E+02
 -11.201  0.1239E-05  0.2000E+02
 -11.191  0.1072E-05  0.2000E+02
 -11.181  0.9266E-06  0.2000E+02
 -11.171  0.8004E-06  0.2000E+02
 -11.161  0.6909E-06  0.2000E+02
 -11.151  0.5961E-06  0.2000E+02
 -11.141  0.5139E-06  0.2000E+02
 -11.131  0.4427E-06  0.2000E+02
 -11.121  0.3812E-06  0.2000E+02
 -11.111  0.3279E-06  0.2000E+02
 -11.101  0.2820E-06  0.2000E+02
 -11.091  0.2423E-06  0.2000E+02
 -11.081  0.2081E-06  0.2000E+02
 -11.071  0.1785E-06  0.2000E+02
 -11.061  0.1531E-06  0.2000E+02
 -11.051  0.1312E-06  0.2000E+02
 -11.041  0.1124E-06  0.2000E+02
 -11.031  0.9618E-07  0.2000E+02
 -11.021  0.8226E-07  0.2000E+02
 -11.011  0.7031E-07  0.2000E+02
 -11.001  0.6005E-07  0.2000E+02
 -10.991  0.5126E-07  0.2000E+02
 -10.981  0.4373E-07  0.2000E+02
 -10.971  0.3728E-07  0.2000E+02
 -10.961  0.3176E-07  0.2000E+02
 -10.951  0.2704E-07  0.2000E+02
 -10.941  0.2300E-07  0.2000E+02
 -10.931  0.1956E-07  0.2000E+02
 -10.921  0.1662E-07  0.2000E+02
 -10.911  0.1411E-07  0.2000E+02
 -10.901  0.1197E-07  0.2000E+02
 -10.891  0.1015E-07  0.2000E+02
 -10.881  0.8602E-08  0.2000E+02
 -10.871  0.7284E-08  0.2000E+02
 -10.861  0.6164E-08  0.2000E+02
 -10.851  0.5213E-08  0.2000E+02
 -10.841  0.4406E-08  0.2000E+02
 -10.831  0.3721E-08  0.2000E+02
 -10.821  0.3141E-08  0.2000E+02
 -10.811  0.2649E-08  0.2000E+02
 -10.801  0.2233E-08  0.2000E+02
 -10.791  0.1881E-08  0.2000E+02
 -10.781  0.1583E-08  0.2000E+02
 -10.771  0.1332E-08  0.2000E+02
 -10.761  0.1120E-08  0.2000E+02
 -10.751  0.9407E-09  0.2000E+02
 -10.741  0.7898E-09  0.2000E+02
 -10.731  0.6626E-09  0.2000E+02
 -10.721  0.5556E-09  0.2000E+02
 -10.711  0.4655E-09  0.2000E+02
 -10.701  0.3898E-09  0.2000E+02
 -10.691  0.3262E-09  0.2000E+02
 -10.681  0.2727E-09  0.2000E+02
 -10.671  0.2279E-09  0.2000E+02
 -10.661  0.1903E-09  0.2000E+02
 -10.651  0.1588E-09  0.2000E+02
 -10.641  0.1325E-09  0.2000E+02
 -10.631  0.1104E-09  0.2000E+02
 -10.621  0.9195E-10  0.2000E+02
 -10.611  0.7653E-10  0.2000E+02
 -10.601  0.6366E-10  0.2000E+02
 -10.591  0.5291E-10  0.2000E+02
 -10.581  0.4395E-10  0.2000E+02
 -10.571  0.3649E-10  0.2000E+02
 -10.561  0.3027E-10  0.2000E+02
 -10.551  0.2509E-10  0.2000E+02
 -10.541  0.2079E-10  0.2000E+02
 -10.531  0.1721E-10  0.2000E+02
 -10.521  0.1424E-10  0.2000E+02
 -10.511  0.1177E-10  0.2000E+02
 -10.501  0.9727E-11  0.2000E+02
 -10.491  0.8032E-11  0.2000E+02
 -10.481  0.6627E-11  0.2000E+02
 -10.471  0.5465E-11  0.2000E+02
 -10.461  0.4503E-11  0.2000E+02
 -10.451  0.3708E-11  0.2000E+02
 -10.441  0.3052E-11  0.2000E+02
 -10.431  0.2510E-11  0.2000E+02
 -10.421  0.2063E-11  0.2000E+02
 -10.411  0.1694E-11  0.2000E+02
 -10.401  0.1390E-11  0.2000E+02
 -10.391  0.1140E-11  0.2000E+02
 -10.381  0.9348E-12  0.2000E+02
 -10.371  0.7657E-12  0.2000E+02
 -10.361  0.6268E-12  0.2000E+02
 -10.351  0.5127E-12  0.2000E+02
 -10.341  0.4191E-12  0.2000E+02
 -10.331  0.3424E-12  0.2000E+02
 -10.321  0.2795E-12  0.2000E+02
 -10.311  0.2280E-12  0.2000E+02
 -10.301  0.1859E-12  0.2000E+02
 -10.291  0.1515E-12  0.2000E+02
 -10.281  0.1233E-12  0.2000E+02
 -10.271  0.1004E-12  0.2000E+02
 -10.261  0.8160E-13  0.2000E+02
 -10.251  0.6630E-13  0.2000E+02
 -10.241  0.5384E-13  0.2000E+02
 -10.231  0.4369E-13  0.2000E+02
 -10.221  0.3543E-13  0.2000E+02
 -10.211  0.2871E-13  0.2000E+02
 -10.201  0.2325E-13  0.2000E+02
 -10.191  0.1882E-13  0.2000E+02
 -10.181  0.1522E-13  0.2000E+02
 -10.171  0.1230E-13  0.2000E+02
 -10.161  0.9936E-14  0.2000E+02
 -10.151  0.8020E-14  0.2000E+02
 -10.141  0.6469E-14  0.2000E+02
 -10.131  0.5215E-14  0.2000E+02
 -10.121  0.4201E-14  0.2000E+02
 -10.111  0.3382E-14  0.2000E+02
 -10.101  0.2720E-14  0.2000E+02
 -10.091  0.2187E-14  0.2000E+02
 -10.081  0.1757E-14  0.2000E+02
 -10.071  0.1411E-14  0.2000E+02
 -10.061  0.1132E-14  0.2000E+02
 -10.051  0.9074E-15  0.2000E+02
 -10.041  0.7270E-15  0.2000E+02
 -10.031  0.5821E-15  0.2000E+02
 -10.021  0.4658E-15  0.2000E+02
 -10.011  0.3725E-15  0.2000E+02
 -10.001  0.2976E-15  0.2000E+02
  -9.991  0.2377E-15  0.2000E+02
  -9.981  0.1897E-15  0.2000E+02
  -9.971  0.1513E-15  0.2000E+02
  -9.961  0.1206E-15  0.2000E+02
  -9.951  0.9601E-16  0.2000E+02
  -9.941  0.7642E-16  0.2000E+02
  -9.931  0.6078E-16  0.2000E+02
  -9.921  0.4831E-16  0.2000E+02
  -9.911  0.3837E-16  0.2000E+02
  -9.901  0.3046E-16  0.2000E+02
  -9.891  0.2416E-16  0.2000E+02
  -9.881  0.1915E-16  0.2000E+02
  -9.871  0.1517E-16  0.2000E+02
  -9.861  0.1201E-16  0.2000E+02
  -9.851  0.9502E-17  0.2000E+02
  -9.841  0.7512E-17  0.2000E+02
  -9.831  0.5935E-17  0.2000E+02
  -9.821  0.4685E-17  0.2000E+02
  -9.811  0.3697E-17  0.2000E+02
  -9.801  0.2915E-17  0.2000E+02
  -9.791  0.2297E-17  0.2000E+02
  -9.781  0.1808E-17  0.2000E+02
  -9.771  0.1423E-17  0.2000E+02
  -9.761  0.1119E-17  0.2000E+02
  -9.751  0.8793E-18  0.2000E+02
  -9.741  0.6905E-18  0.2000E+02
  -9.731  0.5419E-18  0.2000E+02
  -9.721  0.4250E-18  0.2000E+02
  -9.711  0.3331E-18  0.2000E+02
  -9.701  0.2609E-18  0.2000E+02
  -9.691  0.2042E-18  0.2000E+02
  -9.681  0.1597E-18  0.2000E+02
  -9.671  0.1248E-18  0.2000E+02
  -9.661  0.9749E-19  0.2000E+02
  -9.651  0.7610E-19  0.2000E+02
  -9.641  0.5936E-19  0.2000E+02
  -9.631  0.4627E-19  0.2000E+02
  -9.621  0.3605E-19  0.2000E+02
  -9.611  0.2806E-19  0.2000E+02
  -9.601  0.2183E-19  0.2000E+02
  -9.591  0.1697E-19  0.2000E+02
  -9.581  0.1319E-19  0.2000E+02
  -9.571  0.1024E-19  0.2000E+02
  -9.561  0.7943E-20  0.2000E+02
  -9.551  0.6159E-20  0.2000E+02
  -9.541  0.4772E-20  0.2000E+02
  -9.531  0.3695E-20  0.2000E+02
  -9.521  0.2859E-20  0.2000E+02
  -9.511  0.2211E-20  0.2000E+02
  -9.501  0.1708E-20  0.2000E+02
  -9.491  0.1319E-20  0.2000E+02
  -9.481  0.1018E-20  0.2000E+02
  -9.471  0.7852E-21  0.2000E+02
  -9.461  0.6051E-21  0.2000E+02
  -9.451  0.4661E-21  0.2000E+02
  -9.441  0.3587E-21  0.2000E+02
  -9.431  0.2759E-21  0.2000E+02
  -9.421  0.2120E-21  0.2000E+02
  -9.411  0.1629E-21  0.2000E+02
  -9.401  0.1250E-21  0.2000E+02
  -9.391  0.9590E-22  0.2000E+02
  -9.381  0.7351E-22  0.2000E+02
  -9.371  0.5631E-22  0.2000E+02
  -9.361  0.4311E-22  0.2000E+02
  -9.351  0.3298E-22  0.2000E+02
  -9.341  0.2521E-22  0.2000E+02
  -9.331  0.1926E-22  0.2000E+02
  -9.321  0.1471E-22  0.2000E+02
  -9.311  0.1122E-22  0.2000E+02
  -9.301  0.8555E-23  0.2000E+02
  -9.291  0.6518E-23  0.2000E+02
  -9.281  0.4963E-23  0.2000E+02
  -9.271  0.3776E-23  0.2000E+02
  -9.261  0.2872E-23  0.2000E+02
  -9.251  0.2182E-23  0.2000E+02
  -9.241  0.1657E-23  0.2000E+02
  -9.231  0.1257E-23  0.2000E+02
  -9.221  0.9536E-24  0.2000E+02
  -9.211  0.7227E-24  0.2000E+02
  -9.201  0.5473E-24  0.2000E+02
  -9.191  0.4142E-24  0.2000E+02
  -9.181  0.3133E-24  0.2000E+02
  -9.171  0.2368E-24  0.2000E+02
  -9.161  0.1788E-24  0.2000E+02
  -9.151  0.1350E-24  0.2000E+02
  -9.141  0.1018E-24  0.2000E+02
  -9.131  0.7675E-25  0.2000E+02
  -9.121  0.5782E-25  0.2000E+02
  -9.111  0.4352E-25  0.2000E+02
  -9.101  0.3274E-25  0.2000E+02
  -9.091  0.2461E-25  0.2000E+02
  -9.081  0.1849E-25  0.2000E+02
  -9.071  0.1388E-25  0.2000E+02
  -9.061  0.1042E-25  0.2000E+02
  -9.051  0.7809E-26  0.2000E+02
  -9.041  0.5851E-26  0.2000E+02
  -9.031  0.4381E-26  0.2000E+02
  -9.021  0.3278E-26  0.2000E+02
  -9.011  0.2451E-26  0.2000E+02
  -9.001  0.1831E-26  0.2000E+02
  -8.991  0.1368E-26  0.2000E+02
  -8.981  0.1020E-26  0.2000E+02
  -8.971  0.7610E-27  0.2000E+02
  -8.961  0.5671E-27  0.2000E+02
  -8.951  0.4223E-27  0.2000E+02
  -8.941  0.3143E-27  0.2000E+02
  -8.931  0.2338E-27  0.2000E+02
  -8.921  0.1737E-27  0.2000E+02
  -8.911  0.1290E-27  0.2000E+02
  -8.901  0.9577E-28  0.2000E+02
  -8.891  0.7104E-28  0.2000E+02
  -8.881  0.5265E-28  0.2000E+02
  -8.871  0.3900E-28  0.2000E+02
  -8.861  0.2887E-28  0.2000E+02
  -8.851  0.2136E-28  0.2000E+02
  -8.841  0.1579E-28  0.2000E+02
  -8.831  0.1166E-28  0.2000E+02
  -8.821  0.8610E-29  0.2000E+02
  -8.811  0.6352E-29  0.2000E+02
  -8.801  0.4683E-29  0.2000E+02
  -8.791  0.3450E-29  0.2000E+02
  -8.781  0.2540E-29  0.2000E+02
  -8.771  0.1869E-29  0.2000E+02
  -8.761  0.1374E-29  0.2000E+02
  -8.751  0.1010E-29  0.2000E+02
  -8.741  0.7414E-30  0.2000E+02
  -8.731  0.5440E-30  0.2000E+02
  -8.721  0.3989E-30  0.2000E+02
  -8.711  0.2923E-30  0.2000E+02
  -8.701  0.2141E-30  0.2000E+02
  -8.691  0.1567E-30  0.2000E+02
  -8.681  0.1146E-30  0.2000E+02
  -8.671  0.8373E-31  0.2000E+02
  -8.661  0.6115E-31  0.2000E+02
  -8.651  0.4463E-31  0.2000E+02
  -8.641  0.3255E-31  0.2000E+02
  -8.631  0.2373E-31  0.2000E+02
  -8.621  0.1728E-31  0.2000E+02
  -8.611  0.1258E-31  0.2000E+02
  -8.601  0.9150E-32  0.2000E+02
  -8.591  0.6651E-32  0.2000E+02
  -8.581  0.4831E-32  0.2000E+02
  -8.571  0.3507E-32  0.2000E+02
  -8.561  0.2544E-32  0.2000E+02
  -8.551  0.1844E-32  0.2000E+02
  -8.541  0.1336E-32  0.2000E+02
  -8.531  0.9674E-33  0.2000E+02
  -8.521  0.6999E-33  0.2000E+02
  -8.511  0.5060E-33  0.2000E+02
  -8.501  0.3656E-33  0.2000E+02
  -8.491  0.2640E-33  0.2000E+02
  -8.481  0.1905E-33  0.2000E+02
  -8.471  0.1373E-33  0.2000E+02
  -8.461  0.9897E-34  0.2000E+02
  -8.451  0.7126E-34  0.2000E+02
  -8.441  0.5128E-34  0.2000E+02
  -8.431  0.3688E-34  0.2000E+02
  -8.421  0.2650E-34  0.2000E+02
  -8.411  0.1903E-34  0.2000E+02
  -8.401  0.1366E-34  0.2000E+02
  -8.391  0.9796E-35  0.2000E+02
  -8.381  0.7021E-35  0.2000E+02
  -8.371  0.5028E-35  0.2000E+02
  -8.361  0.3599E-35  0.2000E+02
  -8.351  0.2574E-35  0.2000E+02
  -8.341  0.1840E-35  0.2000E+02
  -8.331  0.1314E-35  0.2000E+02
  -8.321  0.9381E-36  0.2000E+02
  -8.311  0.6692E-36  0.2000E+02
  -8.301  0.4770E-36  0.2000E+02
  -8.291  0.3398E-36  0.2000E+02
  -8.281  0.2419E-36  0.2000E+02
  -8.271  0.1721E-36  0.2000E+02
  -8.261  0.1224E-36  0.2000E+02
  -8.251  0.8693E-37  0.2000E+02
  -8.241  0.6172E-37  0.2000E+02
  -8.231  0.4379E-37  0.2000E+02
  -8.221  0.3105E-37  0.2000E+02
  -8.211  0.2200E-37  0.2000E+02
  -8.201  0.1558E-37  0.2000E+02
  -8.191  0.1102E-37  0.2000E+02
  -8.181  0.7794E-38  0.2000E+02
  -8.171  0.5507E-38  0.2000E+02
  -8.161  0.3889E-38  0.2000E+02
  -8.151  0.2745E-38  0.2000E+02
  -8.141  0.1935E-38  0.2000E+02
  -8.131  0.1364E-38  0.2000E+02
  -8.121  0.9606E-39  0.2000E+02
  -8.111  0.6761E-39  0.2000E+02
  -8.101  0.4755E-39  0.2000E+02
  -8.091  0.3342E-39  0.2000E+02
  -8.081  0.2347E-39  0.2000E+02
  -8.071  0.1648E-39  0.2000E+02
  -8.061  0.1156E-39  0.2000E+02
  -8.051  0.8102E-40  0.2000E+02
  -8.041  0.5677E-40  0.2000E+02
  -8.031  0.3976E-40  0.2000E+02
  -8.021  0.2784E-40  0.2000E+02
  -8.011  0.1950E-40  0.2000E+02
  -8.001  0.1367E-40  0.2000E+02
  -7.991  0.9621E-41  0.2000E+02
  -7.981  0.6820E-41  0.2000E+02
  -7.971  0.4908E-41  0.2000E+02
  -7.961  0.3637E-41  0.2000E+02
  -7.951  0.2842E-41  0.2000E+02
  -7.941  0.2419E-41  0.2000E+02
  -7.931  0.2308E-41  0.2000E+02
  -7.921  0.2494E-41  0.2000E+02
  -7.911  0.2994E-41  0.2000E+02
  -7.901  0.3869E-41  0.2000E+02
  -7.891  0.5220E-41  0.2000E+02
  -7.881  0.7212E-41  0.2000E+02
  -7.871  0.1008E-40  0.2000E+02
  -7.861  0.1417E-40  0.2000E+02
  -7.851  0.1997E-40  0.2000E+02
  -7.841  0.2817E-40  0.2000E+02
  -7.831  0.3973E-40  0.2000E+02
  -7.821  0.5602E-40  0.2000E+02
  -7.811  0.7895E-40  0.2000E+02
  -7.801  0.1112E-39  0.2000E+02
  -7.791  0.1565E-39  0.2000E+02
  -7.781  0.2202E-39  0.2000E+02
  -7.771  0.3096E-39  0.2000E+02
  -7.761  0.4350E-39  0.2000E+02
  -7.751  0.6107E-39  0.2000E+02
  -7.741  0.8568E-39  0.2000E+02
  -7.731  0.1201E-38  0.2000E+02
  -7.721  0.1683E-38  0.2000E+02
  -7.711  0.2357E-38  0.2000E+02
  -7.701  0.3298E-38  0.2000E+02
  -7.691  0.4611E-38  0.2000E+02
  -7.681  0.6444E-38  0.2000E+02
  -7.671  0.8999E-38  0.2000E+02
  -7.661  0.1256E-37  0.2000E+02
  -7.651  0.1751E-37  0.2000E+02
  -7.641  0.2441E-37  0.2000E+02
  -7.631  0.3399E-37  0.2000E+02
  -7.621  0.4731E-37  0.2000E+02
  -7.611  0.6580E-37  0.2000E+02
  -7.601  0.9146E-37  0.2000E+02
  -7.591  0.1270E-36  0.2000E+02
  -7.581  0.1763E-36  0.2000E+02
  -7.571  0.2446E-36  0.2000E+02
  -7.561  0.3391E-36  0.2000E+02
  -7.551  0.4697E-36  0.2000E+02
  -7.541  0.6503E-36  0.2000E+02
  -7.531  0.8996E-36  0.2000E+02
  -7.521  0.1244E-35  0.2000E+02
  -7.511  0.1718E-35  0.2000E+02
  -7.501  0.2372E-35  0.2000E+02
  -7.491  0.3273E-35  0.2000E+02
  -7.481  0.4513E-35  0.2000E+02
  -7.471  0.6219E-35  0.2000E+02
  -7.461  0.8563E-35  0.2000E+02
  -7.451  0.1178E-34  0.2000E+02
  -7.441  0.1620E-34  0.2000E+02
  -7.431  0.2227E-34  0.2000E+02
  -7.421  0.3058E-34  0.2000E+02
  -7.411  0.4197E-34  0.2000E+02
  -7.401  0.5756E-34  0.2000E+02
  -7.391  0.7888E-34  0.2000E+02
  -7.381  0.1080E-33  0.2000E+02
  -7.371  0.1479E-33  0.2000E+02
  -7.361  0.2023E-33  0.2000E+02
  -7.351  0.2765E-33  0.2000E+02
  -7.341  0.3777E-33  0.2000E+02
  -7.331  0.5155E-33  0.2000E+02
  -7.321  0.7033E-33  0.2000E+02
  -7.311  0.9587E-33  0.2000E+02
  -7.301  0.1306E-32  0.2000E+02
  -7.291  0.1778E-32  0.2000E+02
  -7.281  0.2419E-32  0.2000E+02
  -7.271  0.3289E-32  0.2000E+02
  -7.261  0.4469E-32  0.2000E+02
  -7.251  0.6068E-32  0.2000E+02
  -7.241  0.8234E-32  0.2000E+02
  -7.231  0.1116E-31  0.2000E+02
  -7.221  0.1513E-31  0.2000E+02
  -7.211  0.2049E-31  0.2000E+02
  -7.201  0.2773E-31  0.2000E+02
  -7.191  0.3750E-31  0.2000E+02
  -7.181  0.5067E-31  0.2000E+02
  -7.171  0.6844E-31  0.2000E+02
  -7.161  0.9237E-31  0.2000E+02
  -7.151  0.1246E-30  0.2000E+02
  -7.141  0.1679E-30  0.2000E+02
  -7.131  0.2262E-30  0.2000E+02
  -7.121  0.3045E-30  0.2000E+02
  -7.111  0.4096E-30  0.2000E+02
  -7.101  0.5506E-30  0.2000E+02
  -7.091  0.7397E-30  0.2000E+02
  -7.081  0.9930E-30  0.2000E+02
  -7.071  0.1332E-29  0.2000E+02
  -7.061  0.1786E-29  0.2000E+02
  -7.051  0.2393E-29  0.2000E+02
  -7.041  0.3204E-29  0.2000E+02
  -7.031  0.4287E-29  0.2000E+02
  -7.021  0.5733E-29  0.2000E+02
  -7.011  0.7661E-29  0.2000E+02
  -7.001  0.1023E-28  0.2000E+02
  -6.991  0.1365E-28  0.2000E+02
  -6.981  0.1821E-28  0.2000E+02
  -6.971  0.2426E-28  0.2000E+02
  -6.961  0.3231E-28  0.2000E+02
  -6.951  0.4301E-28  0.2000E+02
  -6.941  0.5720E-28  0.2000E+02
  -6.931  0.7603E-28  0.2000E+02
  -6.921  0.1010E-27  0.2000E+02
  -6.911  0.1341E-27  0.2000E+02
  -6.901  0.1778E-27  0.2000E+02
  -6.891  0.2357E-27  0.2000E+02
  -6.881  0.3123E-27  0.2000E+02
  -6.871  0.4135E-27  0.2000E+02
  -6.861  0.5470E-27  0.2000E+02
  -6.851  0.7232E-27  0.2000E+02
  -6.841  0.9556E-27  0.2000E+02
  -6.831  0.1262E-26  0.2000E+02
  -6.821  0.1665E-26  0.2000E+02
  -6.811  0.2195E-26  0.2000E+02
  -6.801  0.2893E-26  0.2000E+02
  -6.791  0.3810E-26  0.2000E+02
  -6.781  0.5013E-26  0.2000E+02
  -6.771  0.6593E-26  0.2000E+02
  -6.761  0.8665E-26  0.2000E+02
  -6.751  0.1138E-25  0.2000E+02
  -6.741  0.1494E-25  0.2000E+02
  -6.731  0.1959E-25  0.2000E+02
  -6.721  0.2568E-25  0.2000E+02
  -6.711  0.3364E-25  0.2000E+02
  -6.701  0.4404E-25  0.2000E+02
  -6.691  0.5761E-25  0.2000E+02
  -6.681  0.7532E-25  0.2000E+02
  -6.671  0.9840E-25  0.2000E+02
  -6.661  0.1285E-24  0.2000E+02
  -6.651  0.1676E-24  0.2000E+02
  -6.641  0.2186E-24  0.2000E+02
  -6.631  0.2848E-24  0.2000E+02
  -6.621  0.3708E-24  0.2000E+02
  -6.611  0.4826E-24  0.2000E+02
  -6.601  0.6275E-24  0.2000E+02
  -6.591  0.8155E-24  0.2000E+02
  -6.581  0.1059E-23  0.2000E+02
  -6.571  0.1375E-23  0.2000E+02
  -6.561  0.1783E-23  0.2000E+02
  -6.551  0.2311E-23  0.2000E+02
  -6.541  0.2993E-23  0.2000E+02
  -6.531  0.3874E-23  0.2000E+02
  -6.521  0.5012E-23  0.2000E+02
  -6.511  0.6479E-23  0.2000E+02
  -6.501  0.8370E-23  0.2000E+02
  -6.491  0.1081E-22  0.2000E+02
  -6.481  0.1394E-22  0.2000E+02
  -6.471  0.1798E-22  0.2000E+02
  -6.461  0.2316E-22  0.2000E+02
  -6.451  0.2982E-22  0.2000E+02
  -6.441  0.3837E-22  0.2000E+02
  -6.431  0.4935E-22  0.2000E+02
  -6.421  0.6341E-22  0.2000E+02
  -6.411  0.8144E-22  0.2000E+02
  -6.401  0.1045E-21  0.2000E+02
  -6.391  0.1340E-21  0.2000E+02
  -6.381  0.1718E-21  0.2000E+02
  -6.371  0.2201E-21  0.2000E+02
  -6.361  0.2817E-21  0.2000E+02
  -6.351  0.3603E-21  0.2000E+02
  -6.341  0.4606E-21  0.2000E+02
  -6.331  0.5884E-21  0.2000E+02
  -6.321  0.7512E-21  0.2000E+02
  -6.311  0.9584E-21  0.2000E+02
  -6.301  0.1222E-20  0.2000E+02
  -6.291  0.1557E-20  0.2000E+02
  -6.281  0.1982E-20  0.2000E+02
  -6.271  0.2523E-20  0.2000E+02
  -6.261  0.3208E-20  0.2000E+02
  -6.251  0.4076E-20  0.2000E+02
  -6.241  0.5177E-20  0.2000E+02
  -6.231  0.6570E-20  0.2000E+02
  -6.221  0.8333E-20  0.2000E+02
  -6.211  0.1056E-19  0.2000E+02
  -6.201  0.1338E-19  0.2000E+02
  -6.191  0.1693E-19  0.2000E+02
  -6.181  0.2142E-19  0.2000E+02
  -6.171  0.2708E-19  0.2000E+02
  -6.161  0.3421E-19  0.2000E+02
  -6.151  0.4319E-19  0.2000E+02
  -6.141  0.5449E-19  0.2000E+02
  -6.131  0.6871E-19  0.2000E+02
  -6.121  0.8657E-19  0.2000E+02
  -6.111  0.1090E-18  0.2000E+02
  -6.101  0.1372E-18  0.2000E+02
  -6.091  0.1725E-18  0.2000E+02
  -6.081  0.2168E-18  0.2000E+02
  -6.071  0.2723E-18  0.2000E+02
  -6.061  0.3417E-18  0.2000E+02
  -6.051  0.4286E-18  0.2000E+02
  -6.041  0.5372E-18  0.2000E+02
  -6.031  0.6730E-18  0.2000E+02
  -6.021  0.8424E-18  0.2000E+02
  -6.011  0.1054E-17  0.2000E+02
  -6.001  0.1318E-17  0.2000E+02
  -5.991  0.1646E-17  0.2000E+02
  -5.981  0.2055E-17  0.2000E+02
  -5.971  0.2564E-17  0.2000E+02
  -5.961  0.3197E-17  0.2000E+02
  -5.951  0.3984E-17  0.2000E+02
  -5.941  0.4962E-17  0.2000E+02
  -5.931  0.6175E-17  0.2000E+02
  -5.921  0.7679E-17  0.2000E+02
  -5.911  0.9545E-17  0.2000E+02
  -5.901  0.1185E-16  0.2000E+02
  -5.891  0.1471E-16  0.2000E+02
  -5.881  0.1825E-16  0.2000E+02
  -5.871  0.2263E-16  0.2000E+02
  -5.861  0.2803E-16  0.2000E+02
  -5.851  0.3470E-16  0.2000E+02
  -5.841  0.4293E-16  0.2000E+02
  -5.831  0.5308E-16  0.2000E+02
  -5.821  0.6559E-16  0.2000E+02
  -5.811  0.8099E-16  0.2000E+02
  -5.801  0.9994E-16  0.2000E+02
  -5.791  0.1233E-15  0.2000E+02
  -5.781  0.1519E-15  0.2000E+02
  -5.771  0.1871E-15  0.2000E+02
  -5.761  0.2303E-15  0.2000E+02
  -5.751  0.2832E-15  0.2000E+02
  -5.741  0.3481E-15  0.2000E+02
  -5.731  0.4276E-15  0.2000E+02
  -5.721  0.5250E-15  0.2000E+02
  -5.711  0.6440E-15  0.2000E+02
  -5.701  0.7896E-15  0.2000E+02
  -5.691  0.9674E-15  0.2000E+02
  -5.681  0.1185E-14  0.2000E+02
  -5.671  0.1449E-14  0.2000E+02
  -5.661  0.1773E-14  0.2000E+02
  -5.651  0.2166E-14  0.2000E+02
  -5.641  0.2645E-14  0.2000E+02
  -5.631  0.3229E-14  0.2000E+02
  -5.621  0.3938E-14  0.2000E+02
  -5.611  0.4800E-14  0.2000E+02
  -5.601  0.5847E-14  0.2000E+02
  -5.591  0.7117E-14  0.2000E+02
  -5.581  0.8659E-14  0.2000E+02
  -5.571  0.1053E-13  0.2000E+02
  -5.561  0.1279E-13  0.2000E+02
  -5.551  0.1553E-13  0.2000E+02
  -5.541  0.1884E-13  0.2000E+02
  -5.531  0.2285E-13  0.2000E+02
  -5.521  0.2769E-13  0.2000E+02
  -5.511  0.3353E-13  0.2000E+02
  -5.501  0.4058E-13  0.2000E+02
  -5.491  0.4908E-13  0.2000E+02
  -5.481  0.5933E-13  0.2000E+02
  -5.471  0.7166E-13  0.2000E+02
  -5.461  0.8651E-13  0.2000E+02
  -5.451  0.1044E-12  0.2000E+02
  -5.441  0.1258E-12  0.2000E+02
  -5.431  0.1516E-12  0.2000E+02
  -5.421  0.1825E-12  0.2000E+02
  -5.411  0.2196E-12  0.2000E+02
  -5.401  0.2641E-12  0.2000E+02
  -5.391  0.3173E-12  0.2000E+02
  -5.381  0.3811E-12  0.2000E+02
  -5.371  0.4574E-12  0.2000E+02
  -5.361  0.5486E-12  0.2000E+02
  -5.351  0.6576E-12  0.2000E+02
  -5.341  0.7877E-12  0.2000E+02
  -5.331  0.9429E-12  0.2000E+02
  -5.321  0.1128E-11  0.2000E+02
  -5.311  0.1349E-11  0.2000E+02
  -5.301  0.1611E-11  0.2000E+02
  -5.291  0.1924E-11  0.2000E+02
  -5.281  0.2296E-11  0.2000E+02
  -5.271  0.2737E-11  0.2000E+02
  -5.261  0.3262E-11  0.2000E+02
  -5.251  0.3885E-11  0.2000E+02
  -5.241  0.4624E-11  0.2000E+02
  -5.231  0.5500E-11  0.2000E+02
  -5.221  0.6537E-11  0.2000E+02
  -5.211  0.7766E-11  0.2000E+02
  -5.201  0.9219E-11  0.2000E+02
  -5.191  0.1094E-10  0.2000E+02
  -5.181  0.1297E-10  0.2000E+02
  -5.171  0.1536E-10  0.2000E+02
  -5.161  0.1819E-10  0.2000E+02
  -5.151  0.2153E-10  0.2000E+02
  -5.141  0.2546E-10  0.2000E+02
  -5.131  0.3009E-10  0.2000E+02
  -5.121  0.3553E-10  0.2000E+02
  -5.111  0.4194E-10  0.2000E+02
  -5.101  0.4947E-10  0.2000E+02
  -5.091  0.5832E-10  0.2000E+02
  -5.081  0.6870E-10  0.2000E+02
  -5.071  0.8088E-10  0.2000E+02
  -5.061  0.9515E-10  0.2000E+02
  -5.051  0.1119E-09  0.2000E+02
  -5.041  0.1315E-09  0.2000E+02
  -5.031  0.1544E-09  0.2000E+02
  -5.021  0.1812E-09  0.2000E+02
  -5.011  0.2125E-09  0.2000E+02
  -5.001  0.2490E-09  0.2000E+02
  -4.991  0.2917E-09  0.2000E+02
  -4.981  0.3414E-09  0.2000E+02
  -4.971  0.3994E-09  0.2000E+02
  -4.961  0.4669E-09  0.2000E+02
  -4.951  0.5454E-09  0.2000E+02
  -4.941  0.6368E-09  0.2000E+02
  -4.931  0.7430E-09  0.2000E+02
  -4.921  0.8664E-09  0.2000E+02
  -4.911  0.1010E-08  0.2000E+02
  -4.901  0.1176E-08  0.2000E+02
  -4.891  0.1368E-08  0.2000E+02
  -4.881  0.1592E-08  0.2000E+02
  -4.871  0.1850E-08  0.2000E+02
  -4.861  0.2149E-08  0.2000E+02
  -4.851  0.2495E-08  0.2000E+02
  -4.841  0.2894E-08  0.2000E+02
  -4.831  0.3355E-08  0.2000E+02
  -4.821  0.3888E-08  0.2000E+02
  -4.811  0.4502E-08  0.2000E+02
  -4.801  0.5209E-08  0.2000E+02
  -4.791  0.6024E-08  0.2000E+02
  -4.781  0.6962E-08  0.2000E+02
  -4.771  0.8041E-08  0.2000E+02
  -4.761  0.9281E-08  0.2000E+02
  -4.751  0.1071E-07  0.2000E+02
  -4.741  0.1234E-07  0.2000E+02
  -4.731  0.1422E-07  0.2000E+02
  -4.721  0.1637E-07  0.2000E+02
  -4.711  0.1883E-07  0.2000E+02
  -4.701  0.2166E-07  0.2000E+02
  -4.691  0.2488E-07  0.2000E+02
  -4.681  0.2858E-07  0.2000E+02
  -4.671  0.3280E-07  0.2000E+02
  -4.661  0.3761E-07  0.2000E+02
  -4.651  0.4311E-07  0.2000E+02
  -4.641  0.4939E-07  0.2000E+02
  -4.631  0.5653E-07  0.2000E+02
  -4.621  0.6467E-07  0.2000E+02
  -4.611  0.7394E-07  0.2000E+02
  -4.601  0.8448E-07  0.2000E+02
  -4.591  0.9647E-07  0.2000E+02
  -4.581  0.1101E-06  0.2000E+02
  -4.571  0.1255E-06  0.2000E+02
  -4.561  0.1431E-06  0.2000E+02
  -4.551  0.1630E-06  0.2000E+02
  -4.541  0.1855E-06  0.2000E+02
  -4.531  0.2110E-06  0.2000E+02
  -4.521  0.2398E-06  0.2000E+02
  -4.511  0.2725E-06  0.2000E+02
  -4.501  0.3094E-06  0.2000E+02
  -4.491  0.3510E-06  0.2000E+02
  -4.481  0.3980E-06  0.2000E+02
  -4.471  0.4511E-06  0.2000E+02
  -4.461  0.5108E-06  0.2000E+02
  -4.451  0.5781E-06  0.2000E+02
  -4.441  0.6539E-06  0.2000E+02
  -4.431  0.7391E-06  0.2000E+02
  -4.421  0.8350E-06  0.2000E+02
  -4.411  0.9426E-06  0.2000E+02
  -4.401  0.1063E-05  0.2000E+02
  -4.391  0.1199E-05  0.2000E+02
  -4.381  0.1351E-05  0.2000E+02
  -4.371  0.1521E-05  0.2000E+02
  -4.361  0.1712E-05  0.2000E+02
  -4.351  0.1926E-05  0.2000E+02
  -4.341  0.2164E-05  0.2000E+02
  -4.331  0.2431E-05  0.2000E+02
  -4.321  0.2729E-05  0.2000E+02
  -4.311  0.3062E-05  0.2000E+02
  -4.301  0.3433E-05  0.2000E+02
  -4.291  0.3846E-05  0.2000E+02
  -4.281  0.4307E-05  0.2000E+02
  -4.271  0.4819E-05  0.2000E+02
  -4.261  0.5390E-05  0.2000E+02
  -4.251  0.6024E-05  0.2000E+02
  -4.241  0.6728E-05  0.2000E+02
  -4.231  0.7510E-05  0.2000E+02
  -4.221  0.8378E-05  0.2000E+02
  -4.211  0.9340E-05  0.2000E+02
  -4.201  0.1041E-04  0.2000E+02
  -4.191  0.1159E-04  0.2000E+02
  -4.181  0.1289E-04  0.2000E+02
  -4.171  0.1434E-04  0.2000E+02
  -4.161  0.1594E-04  0.2000E+02
  -4.151  0.1770E-04  0.2000E+02
  -4.141  0.1965E-04  0.2000E+02
  -4.131  0.2179E-04  0.2000E+02
  -4.121  0.2416E-04  0.2000E+02
  -4.111  0.2677E-04  0.2000E+02
  -4.101  0.2964E-04  0.2000E+02
  -4.091  0.3280E-04  0.2000E+02
  -4.081  0.3627E-04  0.2000E+02
  -4.071  0.4009E-04  0.2000E+02
  -4.061  0.4427E-04  0.2000E+02
  -4.051  0.4887E-04  0.2000E+02
  -4.041  0.5391E-04  0.2000E+02
  -4.031  0.5943E-04  0.2000E+02
  -4.021  0.6548E-04  0.2000E+02
  -4.011  0.7210E-04  0.2000E+02
  -4.001  0.7934E-04  0.2000E+02
  -3.991  0.8726E-04  0.2000E+02
  -3.981  0.9590E-04  0.2000E+02
  -3.971  0.1053E-03  0.2000E+02
  -3.961  0.1156E-03  0.2000E+02
  -3.951  0.1268E-03  0.2000E+02
  -3.941  0.1391E-03  0.2000E+02
  -3.931  0.1524E-03  0.2000E+02
  -3.921  0.1669E-03  0.2000E+02
  -3.911  0.1826E-03  0.2000E+02
  -3.901  0.1997E-03  0.2000E+02
  -3.891  0.2183E-03  0.2000E+02
  -3.881  0.2385E-03  0.2000E+02
  -3.871  0.2603E-03  0.2000E+02
  -3.861  0.2840E-03  0.2000E+02
  -3.851  0.3097E-03  0.2000E+02
  -3.841  0.3375E-03  0.2000E+02
  -3.831  0.3675E-03  0.2000E+02
  -3.821  0.4000E-03  0.2000E+02
  -3.811  0.4351E-03  0.2000E+02
  -3.801  0.4730E-03  0.2000E+02
  -3.791  0.5139E-03  0.2000E+02
  -3.781  0.5580E-03  0.2000E+02
  -3.771  0.6054E-03  0.2000E+02
  -3.761  0.6566E-03  0.2000E+02
  -3.751  0.7116E-03  0.2000E+02
  -3.741  0.7708E-03  0.2000E+02
  -3.731  0.8344E-03  0.2000E+02
  -3.721  0.9027E-03  0.2000E+02
  -3.711  0.9761E-03  0.2000E+02
  -3.701  0.1055E-02  0.2000E+02
  -3.691  0.1139E-02  0.2000E+02
  -3.681  0.1229E-02  0.2000E+02
  -3.671  0.1326E-02  0.2000E+02
  -3.661  0.1430E-02  0.2000E+02
  -3.651  0.1540E-02  0.2000E+02
  -3.641  0.1659E-02  0.2000E+02
  -3.631  0.1785E-02  0.2000E+02
  -3.621  0.1920E-02  0.2000E+02
  -3.611  0.2063E-02  0.2000E+02
  -3.601  0.2216E-02  0.2000E+02
  -3.591  0.2380E-02  0.2000E+02
  -3.581  0.2553E-02  0.2000E+02
  -3.571  0.2738E-02  0.2000E+02
  -3.561  0.2935E-02  0.2000E+02
  -3.551  0.3143E-02  0.2000E+02
  -3.541  0.3365E-02  0.2000E+02
  -3.531  0.3600E-02  0.2000E+02
  -3.521  0.3850E-02  0.2000E+02
  -3.511  0.4114E-02  0.2000E+02
  -3.501  0.4394E-02  0.2000E+02
  -3.491  0.4690E-02  0.2000E+02
  -3.481  0.5004E-02  0.2000E+02
  -3.471  0.5335E-02  0.2000E+02
  -3.461  0.5685E-02  0.2000E+02
  -3.451  0.6055E-02  0.2000E+02
  -3.441  0.6445E-02  0.2000E+02
  -3.431  0.6857E-02  0.2000E+02
  -3.421  0.7290E-02  0.2000E+02
  -3.411  0.7747E-02  0.2000E+02
  -3.401  0.8228E-02  0.2000E+02
  -3.391  0.8733E-02  0.2000E+02
  -3.381  0.9265E-02  0.2000E+02
  -3.371  0.9823E-02  0.2000E+02
  -3.361  0.1041E-01  0.2000E+02
  -3.351  0.1103E-01  0.2000E+02
  -3.341  0.1167E-01  0.2000E+02
  -3.331  0.1235E-01  0.2000E+02
  -3.321  0.1306E-01  0.2000E+02
  -3.311  0.1380E-01  0.2000E+02
  -3.301  0.1457E-01  0.2000E+02
  -3.291  0.1538E-01  0.2000E+02
  -3.281  0.1623E-01  0.2000E+02
  -3.271  0.1712E-01  0.2000E+02
  -3.261  0.1804E-01  0.2000E+02
  -3.251  0.1900E-01  0.2000E+02
  -3.241  0.2001E-01  0.2000E+02
  -3.231  0.2105E-01  0.2000E+02
  -3.221  0.2214E-01  0.2000E+02
  -3.211  0.2328E-01  0.2000E+02
  -3.201  0.2446E-01  0.2000E+02
  -3.191  0.2568E-01  0.2000E+02
  -3.181  0.2695E-01  0.2000E+02
  -3.171  0.2827E-01  0.2001E+02
  -3.161  0.2964E-01  0.2001E+02
  -3.151  0.3107E-01  0.2001E+02
  -3.141  0.3254E-01  0.2001E+02
  -3.131  0.3406E-01  0.2001E+02
  -3.121  0.3564E-01  0.2001E+02
  -3.111  0.3727E-01  0.2001E+02
  -3.101  0.3896E-01  0.2001E+02
  -3.091  0.4070E-01  0.2001E+02
  -3.081  0.4251E-01  0.2001E+02
  -3.071  0.4436E-01  0.2001E+02
  -3.061  0.4628E-01  0.2001E+02
  -3.051  0.4826E-01  0.2001E+02
  -3.041  0.5029E-01  0.2001E+02
  -3.031  0.5239E-01  0.2001E+02
  -3.021  0.5455E-01  0.2001E+02
  -3.011  0.5677E-01  0.2001E+02
  -3.001  0.5905E-01  0.2001E+02
  -2.991  0.6139E-01  0.2001E+02
  -2.981  0.6380E-01  0.2001E+02
  -2.971  0.6627E-01  0.2001E+02
  -2.961  0.6881E-01  0.2002E+02
  -2.951  0.7140E-01  0.2002E+02
  -2.941  0.7407E-01  0.2002E+02
  -2.931  0.7679E-01  0.2002E+02
  -2.921  0.7958E-01  0.2002E+02
  -2.911  0.8244E-01  0.2002E+02
  -2.901  0.8535E-01  0.2002E+02
  -2.891  0.8834E-01  0.2002E+02
  -2.881  0.9138E-01  0.2002E+02
  -2.871  0.9449E-01  0.2002E+02
  -2.861  0.9766E-01  0.2002E+02
  -2.851  0.1009E+00  0.2002E+02
  -2.841  0.1042E+00  0.2003E+02
  -2.831  0.1076E+00  0.2003E+02
  -2.821  0.1110E+00  0.2003E+02
  -2.811  0.1145E+00  0.2003E+02
  -2.801  0.1180E+00  0.2003E+02
  -2.791  0.1216E+00  0.2003E+02
  -2.781  0.1253E+00  0.2003E+02
  -2.771  0.1290E+00  0.2003E+02
  -2.761  0.1327E+00  0.2004E+02
  -2.751  0.1366E+00  0.2004E+02
  -2.741  0.1404E+00  0.2004E+02
  -2.731  0.1444E+00  0.2004E+02
  -2.721  0.1484E+00  0.2004E+02
  -2.711  0.1524E+00  0.2004E+02
  -2.701  0.1565E+00  0.2004E+02
  -2.691  0.1606E+00  0.2005E+02
  -2.681  0.1648E+00  0.2005E+02
  -2.671  0.1691E+00  0.2005E+02
  -2.661  0.1733E+00  0.2005E+02
  -2.651  0.1776E+00  0.2005E+02
  -2.641  0.1820E+00  0.2005E+02
  -2.631  0.1864E+00  0.2006E+02
  -2.621  0.1909E+00  0.2006E+02
  -2.611  0.1953E+00  0.2006E+02
  -2.601  0.1999E+00  0.2006E+02
  -2.591  0.2044E+00  0.2006E+02
  -2.581  0.2090E+00  0.2007E+02
  -2.571  0.2136E+00  0.2007E+02
  -2.561  0.2183E+00  0.2007E+02
  -2.551  0.2229E+00  0.2007E+02
  -2.541  0.2276E+00  0.2007E+02
  -2.531  0.2324E+00  0.2008E+02
  -2.521  0.2371E+00  0.2008E+02
  -2.511  0.2419E+00  0.2008E+02
  -2.501  0.2467E+00  0.2008E+02
  -2.491  0.2515E+00  0.2009E+02
  -2.481  0.2564E+00  0.2009E+02
  -2.471  0.2612E+00  0.2009E+02
  -2.461  0.2661E+00  0.2009E+02
  -2.451  0.2710E+00  0.2010E+02
  -2.441  0.2759E+00  0.2010E+02
  -2.431  0.2809E+00  0.2010E+02
  -2.421  0.2858E+00  0.2011E+02
  -2.411  0.2907E+00  0.2011E+02
  -2.401  0.2957E+00  0.2011E+02
  -2.391  0.3007E+00  0.2011E+02
  -2.381  0.3056E+00  0.2012E+02
  -2.371  0.3106E+00  0.2012E+02
  -2.361  0.3156E+00  0.2012E+02
  -2.351  0.3206E+00  0.2013E+02
  -2.341  0.3256E+00  0.2013E+02
  -2.331  0.3306E+00  0.2013E+02
  -2.321  0.3356E+00  0.2014E+02
  -2.311  0.3406E+00  0.2014E+02
  -2.301  0.3456E+00  0.2014E+02
  -2.291  0.3507E+00  0.2015E+02
  -2.281  0.3557E+00  0.2015E+02
  -2.271  0.3607E+00  0.2015E+02
  -2.261  0.3657E+00  0.2016E+02
  -2.251  0.3707E+00  0.2016E+02
  -2.241  0.3758E+00  0.2017E+02
  -2.231  0.3808E+00  0.2017E+02
  -2.221  0.3858E+00  0.2017E+02
  -2.211  0.3908E+00  0.2018E+02
  -2.201  0.3958E+00  0.2018E+02
  -2.191  0.4008E+00  0.2019E+02
  -2.181  0.4058E+00  0.2019E+02
  -2.171  0.4109E+00  0.2019E+02
  -2.161  0.4159E+00  0.2020E+02
  -2.151  0.4209E+00  0.2020E+02
  -2.141  0.4259E+00  0.2021E+02
  -2.131  0.4309E+00  0.2021E+02
  -2.121  0.4359E+00  0.2021E+02
  -2.111  0.4409E+00  0.2022E+02
  -2.101  0.4459E+00  0.2022E+02
  -2.091  0.4509E+00  0.2023E+02
  -2.081  0.4559E+00  0.2023E+02
  -2.071  0.4609E+00  0.2024E+02
  -2.061  0.4659E+00  0.2024E+02
  -2.051  0.4709E+00  0.2025E+02
  -2.041  0.4760E+00  0.2025E+02
  -2.031  0.4810E+00  0.2026E+02
  -2.021  0.4860E+00  0.2026E+02
  -2.011  0.4910E+00  0.2027E+02
  -2.001  0.4960E+00  0.2027E+02
  -1.991  0.5010E+00  0.2028E+02
  -1.981  0.5061E+00  0.2028E+02
  -1.971  0.5111E+00  0.2029E+02
  -1.961  0.5161E+00  0.2029E+02
  -1.951  0.5212E+00  0.2030E+02
  -1.941  0.5262E+00  0.2030E+02
  -1.931  0.5313E+00  0.2031E+02
  -1.921  0.5363E+00  0.2031E+02
  -1.911  0.5414E+00  0.2032E+02
  -1.901  0.5464E+00  0.2032E+02
  -1.891  0.5515E+00  0.2033E+02
  -1.881  0.5566E+00  0.2033E+02
  -1.871  0.5617E+00  0.2034E+02
  -1.861  0.5668E+00  0.2035E+02
  -1.851  0.5719E+00  0.2035E+02
  -1.841  0.5771E+00  0.2036E+02
  -1.831  0.5822E+00  0.2036E+02
  -1.821  0.5873E+00  0.2037E+02
  -1.811  0.5925E+00  0.2037E+02
  -1.801  0.5977E+00  0.2038E+02
  -1.791  0.6029E+00  0.2039E+02
  -1.781  0.6081E+00  0.2039E+02
  -1.771  0.6133E+00  0.2040E+02
  -1.761  0.6185E+00  0.2041E+02
  -1.751  0.6237E+00  0.2041E+02
  -1.741  0.6290E+00  0.2042E+02
  -1.731  0.6342E+00  0.2042E+02
  -1.721  0.6395E+00  0.2043E+02
  -1.711  0.6448E+00  0.2044E+02
  -1.701  0.6501E+00  0.2044E+02
  -1.691  0.6554E+00  0.2045E+02
  -1.681  0.6607E+00  0.2046E+02
  -1.671  0.6661E+00  0.2046E+02
  -1.661  0.6714E+00  0.2047E+02
  -1.651  0.6768E+00  0.2048E+02
  -1.641  0.6822E+00  0.2048E+02
  -1.631  0.6876E+00  0.2049E+02
  -1.621  0.6930E+00  0.2050E+02
  -1.611  0.6984E+00  0.2050E+02
  -1.601  0.7038E+00  0.2051E+02
  -1.591  0.7092E+00  0.2052E+02
  -1.581  0.7146E+00  0.2053E+02
  -1.571  0.7201E+00  0.2053E+02
  -1.561  0.7255E+00  0.2054E+02
  -1.551  0.7310E+00  0.2055E+02
  -1.541  0.7364E+00  0.2055E+02
  -1.531  0.7418E+00  0.2056E+02
  -1.521  0.7473E+00  0.2057E+02
  -1.511  0.7527E+00  0.2058E+02
  -1.501  0.7581E+00  0.2058E+02
  -1.491  0.7635E+00  0.2059E+02
  -1.481  0.7689E+00  0.2060E+02
  -1.471  0.7743E+00  0.2061E+02
  -1.461  0.7797E+00  0.2062E+02
  -1.451  0.7851E+00  0.2062E+02
  -1.441  0.7904E+00  0.2063E+02
  -1.431  0.7957E+00  0.2064E+02
  -1.421  0.8010E+00  0.2065E+02
  -1.411  0.8062E+00  0.2066E+02
  -1.401  0.8114E+00  0.2066E+02
  -1.391  0.8166E+00  0.2067E+02
  -1.381  0.8218E+00  0.2068E+02
  -1.371  0.8269E+00  0.2069E+02
  -1.361  0.8319E+00  0.2070E+02
  -1.351  0.8369E+00  0.2071E+02
  -1.341  0.8419E+00  0.2071E+02
  -1.331  0.8468E+00  0.2072E+02
  -1.321  0.8516E+00  0.2073E+02
  -1.311  0.8564E+00  0.2074E+02
  -1.301  0.8611E+00  0.2075E+02
  -1.291  0.8657E+00  0.2076E+02
  -1.281  0.8702E+00  0.2076E+02
  -1.271  0.8747E+00  0.2077E+02
  -1.261  0.8791E+00  0.2078E+02
  -1.251  0.8834E+00  0.2079E+02
  -1.241  0.8876E+00  0.2080E+02
  -1.231  0.8917E+00  0.2081E+02
  -1.221  0.8957E+00  0.2082E+02
  -1.211  0.8996E+00  0.2083E+02
  -1.201  0.9035E+00  0.2084E+02
  -1.191  0.9072E+00  0.2085E+02
  -1.181  0.9108E+00  0.2085E+02
  -1.171  0.9142E+00  0.2086E+02
  -1.161  0.9176E+00  0.2087E+02
  -1.151  0.9208E+00  0.2088E+02
  -1.141  0.9240E+00  0.2089E+02
  -1.131  0.9269E+00  0.2090E+02
  -1.121  0.9298E+00  0.2091E+02
  -1.111  0.9325E+00  0.2092E+02
  -1.101  0.9351E+00  0.2093E+02
  -1.091  0.9376E+00  0.2094E+02
  -1.081  0.9399E+00  0.2095E+02
  -1.071  0.9421E+00  0.2096E+02
  -1.061  0.9441E+00  0.2097E+02
  -1.051  0.9460E+00  0.2098E+02
  -1.041  0.9478E+00  0.2098E+02
  -1.031  0.9494E+00  0.2099E+02
  -1.021  0.9508E+00  0.2100E+02
  -1.011  0.9521E+00  0.2101E+02
  -1.001  0.9533E+00  0.2102E+02
  -0.991  0.9543E+00  0.2103E+02
  -0.981  0.9551E+00  0.2104E+02
  -0.971  0.9558E+00  0.2105E+02
  -0.961  0.9564E+00  0.2106E+02
  -0.951  0.9568E+00  0.2107E+02
  -0.941  0.9570E+00  0.2108E+02
  -0.931  0.9571E+00  0.2109E+02
  -0.921  0.9571E+00  0.2110E+02
  -0.911  0.9568E+00  0.2111E+02
  -0.901  0.9565E+00  0.2112E+02
  -0.891  0.9560E+00  0.2113E+02
  -0.881  0.9553E+00  0.2114E+02
  -0.871  0.9545E+00  0.2115E+02
  -0.861  0.9535E+00  0.2116E+02
  -0.851  0.9524E+00  0.2117E+02
  -0.841  0.9512E+00  0.2118E+02
  -0.831  0.9498E+00  0.2119E+02
  -0.821  0.9482E+00  0.2119E+02
  -0.811  0.9466E+00  0.2120E+02
  -0.801  0.9447E+00  0.2121E+02
  -0.791  0.9428E+00  0.2122E+02
  -0.781  0.9407E+00  0.2123E+02
  -0.771  0.9385E+00  0.2124E+02
  -0.761  0.9361E+00  0.2125E+02
  -0.751  0.9336E+00  0.2126E+02
  -0.741  0.9310E+00  0.2127E+02
  -0.731  0.9282E+00  0.2128E+02
  -0.721  0.9254E+00  0.2129E+02
  -0.711  0.9224E+00  0.2130E+02
  -0.701  0.9192E+00  0.2131E+02
  -0.691  0.9160E+00  0.2132E+02
  -0.681  0.9126E+00  0.2133E+02
  -0.671  0.9092E+00  0.2133E+02
  -0.661  0.9056E+00  0.2134E+02
  -0.651  0.9019E+00  0.2135E+02
  -0.641  0.8980E+00  0.2136E+02
  -0.631  0.8941E+00  0.2137E+02
  -0.621  0.8901E+00  0.2138E+02
  -0.611  0.8860E+00  0.2139E+02
  -0.601  0.8817E+00  0.2140E+02
  -0.591  0.8774E+00  0.2141E+02
  -0.581  0.8730E+00  0.2141E+02
  -0.571  0.8684E+00  0.2142E+02
  -0.561  0.8638E+00  0.2143E+02
  -0.551  0.8591E+00  0.2144E+02
  -0.541  0.8542E+00  0.2145E+02
  -0.531  0.8493E+00  0.2146E+02
  -0.521  0.8443E+00  0.2147E+02
  -0.511  0.8393E+00  0.2147E+02
  -0.501  0.8341E+00  0.2148E+02
  -0.491  0.8289E+00  0.2149E+02
  -0.481  0.8235E+00  0.2150E+02
  -0.471  0.8181E+00  0.2151E+02
  -0.461  0.8126E+00  0.2152E+02
  -0.451  0.8071E+00  0.2152E+02
  -0.441  0.8014E+00  0.2153E+02
  -0.431  0.7957E+00  0.2154E+02
  -0.421  0.7900E+00  0.2155E+02
  -0.411  0.7841E+00  0.2156E+02
  -0.401  0.7782E+00  0.2156E+02
  -0.391  0.7722E+00  0.2157E+02
  -0.381  0.7662E+00  0.2158E+02
  -0.371  0.7601E+00  0.2159E+02
  -0.361  0.7540E+00  0.2159E+02
  -0.351  0.7478E+00  0.2160E+02
  -0.341  0.7415E+00  0.2161E+02
  -0.331  0.7352E+00  0.2162E+02
  -0.321  0.7289E+00  0.2162E+02
  -0.311  0.7225E+00  0.2163E+02
  -0.301  0.7161E+00  0.2164E+02
  -0.291  0.7096E+00  0.2164E+02
  -0.281  0.7031E+00  0.2165E+02
  -0.271  0.6966E+00  0.2166E+02
  -0.261  0.6900E+00  0.2167E+02
  -0.251  0.6834E+00  0.2167E+02
  -0.241  0.6768E+00  0.2168E+02
  -0.231  0.6702E+00  0.2169E+02
  -0.221  0.6636E+00  0.2169E+02
  -0.211  0.6569E+00  0.2170E+02
  -0.201  0.6503E+00  0.2171E+02
  -0.191  0.6436E+00  0.2171E+02
  -0.181  0.6369E+00  0.2172E+02
  -0.171  0.6303E+00  0.2172E+02
  -0.161  0.6236E+00  0.2173E+02
  -0.151  0.6170E+00  0.2174E+02
  -0.141  0.6104E+00  0.2174E+02
  -0.131  0.6037E+00  0.2175E+02
  -0.121  0.5972E+00  0.2175E+02
  -0.111  0.5906E+00  0.2176E+02
  -0.101  0.5841E+00  0.2177E+02
  -0.091  0.5776E+00  0.2177E+02
  -0.081  0.5711E+00  0.2178E+02
  -0.071  0.5647E+00  0.2178E+02
  -0.061  0.5584E+00  0.2179E+02
  -0.051  0.5521E+00  0.2179E+02
  -0.041  0.5458E+00  0.2180E+02
  -0.031  0.5396E+00  0.2181E+02
  -0.021  0.5335E+00  0.2181E+02
  -0.011  0.5274E+00  0.2182E+02
  -0.001  0.5215E+00  0.2182E+02
   0.009  0.5156E+00  0.2183E+02
   0.019  0.5097E+00  0.2183E+02
   0.029  0.5040E+00  0.2184E+02
   0.039  0.4983E+00  0.2184E+02
   0.049  0.4928E+00  0.2185E+02
   0.059  0.4873E+00  0.2185E+02
   0.069  0.4819E+00  0.2186E+02
   0.079  0.4766E+00  0.2186E+02
   0.089  0.4715E+00  0.2187E+02
   0.099  0.4664E+00  0.2187E+02
   0.109  0.4615E+00  0.2188E+02
   0.119  0.4566E+00  0.2188E+02
   0.129  0.4519E+00  0.2188E+02
   0.139  0.4473E+00  0.2189E+02
   0.149  0.4428E+00  0.2189E+02
   0.159  0.4385E+00  0.2190E+02
   0.169  0.4343E+00  0.2190E+02
   0.179  0.4302E+00  0.2191E+02
   0.189  0.4262E+00  0.2191E+02
   0.199  0.4224E+00  0.2191E+02
   0.209  0.4187E+00  0.2192E+02
   0.219  0.4152E+00  0.2192E+02
   0.229  0.4118E+00  0.2193E+02
   0.239  0.4086E+00  0.2193E+02
   0.249  0.4054E+00  0.2194E+02
   0.259  0.4025E+00  0.2194E+02
   0.269  0.3997E+00  0.2194E+02
   0.279  0.3970E+00  0.2195E+02
   0.289  0.3945E+00  0.2195E+02
   0.299  0.3921E+00  0.2196E+02
   0.309  0.3899E+00  0.2196E+02
   0.319  0.3879E+00  0.2196E+02
   0.329  0.3860E+00  0.2197E+02
   0.339  0.3843E+00  0.2197E+02
   0.349  0.3827E+00  0.2197E+02
   0.359  0.3813E+00  0.2198E+02
   0.369  0.3800E+00  0.2198E+02
   0.379  0.3790E+00  0.2199E+02
   0.389  0.3780E+00  0.2199E+02
   0.399  0.3773E+00  0.2199E+02
   0.409  0.3767E+00  0.2200E+02
   0.419  0.3763E+00  0.2200E+02
   0.429  0.3760E+00  0.2200E+02
   0.439  0.3759E+00  0.2201E+02
   0.449  0.3760E+00  0.2201E+02
   0.459  0.3762E+00  0.2202E+02
   0.469  0.3766E+00  0.2202E+02
   0.479  0.3772E+00  0.2202E+02
   0.489  0.3780E+00  0.2203E+02
   0.499  0.3789E+00  0.2203E+02
   0.509  0.3799E+00  0.2203E+02
   0.519  0.3812E+00  0.2204E+02
   0.529  0.3826E+00  0.2204E+02
   0.539  0.3842E+00  0.2205E+02
   0.549  0.3860E+00  0.2205E+02
   0.559  0.3879E+00  0.2205E+02
   0.569  0.3900E+00  0.2206E+02
   0.579  0.3922E+00  0.2206E+02
   0.589  0.3947E+00  0.2207E+02
   0.599  0.3973E+00  0.2207E+02
   0.609  0.4000E+00  0.2207E+02
   0.619  0.4029E+00  0.2208E+02
   0.629  0.4060E+00  0.2208E+02
   0.639  0.4093E+00  0.2209E+02
   0.649  0.4127E+00  0.2209E+02
   0.659  0.4162E+00  0.2209E+02
   0.669  0.4200E+00  0.2210E+02
   0.679  0.4238E+00  0.2210E+02
   0.689  0.4279E+00  0.2211E+02
   0.699  0.4320E+00  0.2211E+02
   0.709  0.4364E+00  0.2212E+02
   0.719  0.4408E+00  0.2212E+02
   0.729  0.4455E+00  0.2212E+02
   0.739  0.4502E+00  0.2213E+02
   0.749  0.4551E+00  0.2213E+02
   0.759  0.4601E+00  0.2214E+02
   0.769  0.4653E+00  0.2214E+02
   0.779  0.4706E+00  0.2215E+02
   0.789  0.4760E+00  0.2215E+02
   0.799  0.4815E+00  0.2216E+02
   0.809  0.4872E+00  0.2216E+02
   0.819  0.4930E+00  0.2217E+02
   0.829  0.4988E+00  0.2217E+02
   0.839  0.5048E+00  0.2218E+02
   0.849  0.5109E+00  0.2218E+02
   0.859  0.5170E+00  0.2219E+02
   0.869  0.5233E+00  0.2219E+02
   0.879  0.5296E+00  0.2220E+02
   0.889  0.5361E+00  0.2220E+02
   0.899  0.5426E+00  0.2221E+02
   0.909  0.5491E+00  0.2221E+02
   0.919  0.5558E+00  0.2222E+02
   0.929  0.5625E+00  0.2223E+02
   0.939  0.5692E+00  0.2223E+02
   0.949  0.5760E+00  0.2224E+02
   0.959  0.5828E+00  0.2224E+02
   0.969  0.5897E+00  0.2225E+02
   0.979  0.5966E+00  0.2225E+02
   0.989  0.6035E+00  0.2226E+02
   0.999  0.6105E+00  0.2227E+02
   1.009  0.6174E+00  0.2227E+02
   1.019  0.6244E+00  0.2228E+02
   1.029  0.6313E+00  0.2229E+02
   1.039  0.6383E+00  0.2229E+02
   1.049  0.6453E+00  0.2230E+02
   1.059  0.6522E+00  0.2230E+02
   1.069  0.6591E+00  0.2231E+02
   1.079  0.6660E+00  0.2232E+02
   1.089  0.6728E+00  0.2232E+02
   1.099  0.6796E+00  0.2233E+02
   1.109  0.6864E+00  0.2234E+02
   1.119  0.6931E+00  0.2235E+02
   1.129  0.6997E+00  0.2235E+02
   1.139  0.7063E+00  0.2236E+02
   1.149  0.7129E+00  0.2237E+02
   1.159  0.7193E+00  0.2237E+02
   1.169  0.7257E+00  0.2238E+02
   1.179  0.7320E+00  0.2239E+02
   1.189  0.7382E+00  0.2240E+02
   1.199  0.7443E+00  0.2240E+02
   1.209  0.7503E+00  0.2241E+02
   1.219  0.7562E+00  0.2242E+02
   1.229  0.7620E+00  0.2243E+02
   1.239  0.7677E+00  0.2243E+02
   1.249  0.7733E+00  0.2244E+02
   1.259  0.7788E+00  0.2245E+02
   1.269  0.7841E+00  0.2246E+02
   1.279  0.7893E+00  0.2246E+02
   1.289  0.7944E+00  0.2247E+02
   1.299  0.7994E+00  0.2248E+02
   1.309  0.8042E+00  0.2249E+02
   1.319  0.8088E+00  0.2250E+02
   1.329  0.8134E+00  0.2250E+02
   1.339  0.8177E+00  0.2251E+02
   1.349  0.8220E+00  0.2252E+02
   1.359  0.8261E+00  0.2253E+02
   1.369  0.8300E+00  0.2254E+02
   1.379  0.8337E+00  0.2255E+02
   1.389  0.8373E+00  0.2255E+02
   1.399  0.8408E+00  0.2256E+02
   1.409  0.8441E+00  0.2257E+02
   1.419  0.8472E+00  0.2258E+02
   1.429  0.8501E+00  0.2259E+02
   1.439  0.8529E+00  0.2260E+02
   1.449  0.8555E+00  0.2261E+02
   1.459  0.8580E+00  0.2261E+02
   1.469  0.8602E+00  0.2262E+02
   1.479  0.8623E+00  0.2263E+02
   1.489  0.8642E+00  0.2264E+02
   1.499  0.8660E+00  0.2265E+02
   1.509  0.8675E+00  0.2266E+02
   1.519  0.8689E+00  0.2267E+02
   1.529  0.8701E+00  0.2267E+02
   1.539  0.8712E+00  0.2268E+02
   1.549  0.8720E+00  0.2269E+02
   1.559  0.8727E+00  0.2270E+02
   1.569  0.8732E+00  0.2271E+02
   1.579  0.8735E+00  0.2272E+02
   1.589  0.8737E+00  0.2273E+02
   1.599  0.8736E+00  0.2274E+02
   1.609  0.8734E+00  0.2274E+02
   1.619  0.8730E+00  0.2275E+02
   1.629  0.8725E+00  0.2276E+02
   1.639  0.8717E+00  0.2277E+02
   1.649  0.8708E+00  0.2278E+02
   1.659  0.8698E+00  0.2279E+02
   1.669  0.8685E+00  0.2280E+02
   1.679  0.8671E+00  0.2281E+02
   1.689  0.8655E+00  0.2281E+02
   1.699  0.8638E+00  0.2282E+02
   1.709  0.8619E+00  0.2283E+02
   1.719  0.8598E+00  0.2284E+02
   1.729  0.8576E+00  0.2285E+02
   1.739  0.8552E+00  0.2286E+02
   1.749  0.8526E+00  0.2287E+02
   1.759  0.8500E+00  0.2287E+02
   1.769  0.8471E+00  0.2288E+02
   1.779  0.8441E+00  0.2289E+02
   1.789  0.8410E+00  0.2290E+02
   1.799  0.8377E+00  0.2291E+02
   1.809  0.8343E+00  0.2292E+02
   1.819  0.8307E+00  0.2292E+02
   1.829  0.8270E+00  0.2293E+02
   1.839  0.8232E+00  0.2294E+02
   1.849  0.8193E+00  0.2295E+02
   1.859  0.8152E+00  0.2296E+02
   1.869  0.8110E+00  0.2297E+02
   1.879  0.8067E+00  0.2297E+02
   1.889  0.8023E+00  0.2298E+02
   1.899  0.7977E+00  0.2299E+02
   1.909  0.7931E+00  0.2300E+02
   1.919  0.7883E+00  0.2301E+02
   1.929  0.7835E+00  0.2301E+02
   1.939  0.7786E+00  0.2302E+02
   1.949  0.7735E+00  0.2303E+02
   1.959  0.7684E+00  0.2304E+02
   1.969  0.7632E+00  0.2304E+02
   1.979  0.7580E+00  0.2305E+02
   1.989  0.7526E+00  0.2306E+02
   1.999  0.7472E+00  0.2307E+02
   2.009  0.7417E+00  0.2307E+02
   2.019  0.7362E+00  0.2308E+02
   2.029  0.7306E+00  0.2309E+02
   2.039  0.7249E+00  0.2310E+02
   2.049  0.7192E+00  0.2310E+02
   2.059  0.7135E+00  0.2311E+02
   2.069  0.7077E+00  0.2312E+02
   2.079  0.7019E+00  0.2312E+02
   2.089  0.6960E+00  0.2313E+02
   2.099  0.6902E+00  0.2314E+02
   2.109  0.6843E+00  0.2314E+02
   2.119  0.6784E+00  0.2315E+02
   2.129  0.6724E+00  0.2316E+02
   2.139  0.6665E+00  0.2317E+02
   2.149  0.6606E+00  0.2317E+02
   2.159  0.6546E+00  0.2318E+02
   2.169  0.6487E+00  0.2318E+02
   2.179  0.6428E+00  0.2319E+02
   2.189  0.6368E+00  0.2320E+02
   2.199  0.6309E+00  0.2320E+02
   2.209  0.6251E+00  0.2321E+02
   2.219  0.6192E+00  0.2322E+02
   2.229  0.6134E+00  0.2322E+02
   2.239  0.6076E+00  0.2323E+02
   2.249  0.6018E+00  0.2323E+02
   2.259  0.5961E+00  0.2324E+02
   2.269  0.5904E+00  0.2325E+02
   2.279  0.5847E+00  0.2325E+02
   2.289  0.5791E+00  0.2326E+02
   2.299  0.5736E+00  0.2326E+02
   2.309  0.5681E+00  0.2327E+02
   2.319  0.5626E+00  0.2328E+02
   2.329  0.5573E+00  0.2328E+02
   2.339  0.5519E+00  0.2329E+02
   2.349  0.5467E+00  0.2329E+02
   2.359  0.5415E+00  0.2330E+02
   2.369  0.5363E+00  0.2330E+02
   2.379  0.5312E+00  0.2331E+02
   2.389  0.5262E+00  0.2331E+02
   2.399  0.5213E+00  0.2332E+02
   2.409  0.5164E+00  0.2332E+02
   2.419  0.5117E+00  0.2333E+02
   2.429  0.5069E+00  0.2333E+02
   2.439  0.5023E+00  0.2334E+02
   2.449  0.4977E+00  0.2334E+02
   2.459  0.4933E+00  0.2335E+02
   2.469  0.4888E+00  0.2335E+02
   2.479  0.4845E+00  0.2336E+02
   2.489  0.4802E+00  0.2336E+02
   2.499  0.4761E+00  0.2337E+02
   2.509  0.4720E+00  0.2337E+02
   2.519  0.4679E+00  0.2338E+02
   2.529  0.4640E+00  0.2338E+02
   2.539  0.4601E+00  0.2339E+02
   2.549  0.4563E+00  0.2339E+02
   2.559  0.4526E+00  0.2340E+02
   2.569  0.4490E+00  0.2340E+02
   2.579  0.4454E+00  0.2340E+02
   2.589  0.4419E+00  0.2341E+02
   2.599  0.4385E+00  0.2341E+02
   2.609  0.4351E+00  0.2342E+02
   2.619  0.4318E+00  0.2342E+02
   2.629  0.4286E+00  0.2343E+02
   2.639  0.4255E+00  0.2343E+02
   2.649  0.4224E+00  0.2343E+02
   2.659  0.4194E+00  0.2344E+02
   2.669  0.4164E+00  0.2344E+02
   2.679  0.4136E+00  0.2345E+02
   2.689  0.4107E+00  0.2345E+02
   2.699  0.4080E+00  0.2346E+02
   2.709  0.4053E+00  0.2346E+02
   2.719  0.4026E+00  0.2346E+02
   2.729  0.4000E+00  0.2347E+02
   2.739  0.3975E+00  0.2347E+02
   2.749  0.3950E+00  0.2348E+02
   2.759  0.3925E+00  0.2348E+02
   2.769  0.3901E+00  0.2348E+02
   2.779  0.3877E+00  0.2349E+02
   2.789  0.3854E+00  0.2349E+02
   2.799  0.3832E+00  0.2349E+02
   2.809  0.3809E+00  0.2350E+02
   2.819  0.3787E+00  0.2350E+02
   2.829  0.3765E+00  0.2351E+02
   2.839  0.3744E+00  0.2351E+02
   2.849  0.3723E+00  0.2351E+02
   2.859  0.3702E+00  0.2352E+02
   2.869  0.3682E+00  0.2352E+02
   2.879  0.3662E+00  0.2352E+02
   2.889  0.3641E+00  0.2353E+02
   2.899  0.3622E+00  0.2353E+02
   2.909  0.3602E+00  0.2354E+02
   2.919  0.3582E+00  0.2354E+02
   2.929  0.3563E+00  0.2354E+02
   2.939  0.3544E+00  0.2355E+02
   2.949  0.3524E+00  0.2355E+02
   2.959  0.3505E+00  0.2355E+02
   2.969  0.3486E+00  0.2356E+02
   2.979  0.3467E+00  0.2356E+02
   2.989  0.3448E+00  0.2356E+02
   2.999  0.3429E+00  0.2357E+02
   3.009  0.3410E+00  0.2357E+02
   3.019  0.3391E+00  0.2357E+02
   3.029  0.3372E+00  0.2358E+02
   3.039  0.3353E+00  0.2358E+02
   3.049  0.3333E+00  0.2358E+02
   3.059  0.3314E+00  0.2359E+02
   3.069  0.3294E+00  0.2359E+02
   3.079  0.3275E+00  0.2359E+02
   3.089  0.3255E+00  0.2360E+02
   3.099  0.3235E+00  0.2360E+02
   3.109  0.3215E+00  0.2360E+02
   3.119  0.3194E+00  0.2361E+02
   3.129  0.3174E+00  0.2361E+02
   3.139  0.3153E+00  0.2361E+02
   3.149  0.3133E+00  0.2362E+02
   3.159  0.3112E+00  0.2362E+02
   3.169  0.3090E+00  0.2362E+02
   3.179  0.3069E+00  0.2363E+02
   3.189  0.3047E+00  0.2363E+02
   3.199  0.3026E+00  0.2363E+02
   3.209  0.3004E+00  0.2363E+02
   3.219  0.2981E+00  0.2364E+02
   3.229  0.2959E+00  0.2364E+02
   3.239  0.2937E+00  0.2364E+02
   3.249  0.2914E+00  0.2365E+02
   3.259  0.2891E+00  0.2365E+02
   3.269  0.2868E+00  0.2365E+02
   3.279  0.2845E+00  0.2365E+02
   3.289  0.2822E+00  0.2366E+02
   3.299  0.2799E+00  0.2366E+02
   3.309  0.2775E+00  0.2366E+02
   3.319  0.2752E+00  0.2367E+02
   3.329  0.2728E+00  0.2367E+02
   3.339  0.2705E+00  0.2367E+02
   3.349  0.2681E+00  0.2367E+02
   3.359  0.2658E+00  0.2368E+02
   3.369  0.2635E+00  0.2368E+02
   3.379  0.2612E+00  0.2368E+02
   3.389  0.2588E+00  0.2368E+02
   3.399  0.2566E+00  0.2369E+02
   3.409  0.2543E+00  0.2369E+02
   3.419  0.2520E+00  0.2369E+02
   3.429  0.2498E+00  0.2369E+02
   3.439  0.2476E+00  0.2370E+02
   3.449  0.2455E+00  0.2370E+02
   3.459  0.2433E+00  0.2370E+02
   3.469  0.2413E+00  0.2370E+02
   3.479  0.2392E+00  0.2371E+02
   3.489  0.2372E+00  0.2371E+02
   3.499  0.2353E+00  0.2371E+02
   3.509  0.2334E+00  0.2371E+02
   3.519  0.2316E+00  0.2372E+02
   3.529  0.2299E+00  0.2372E+02
   3.539  0.2282E+00  0.2372E+02
   3.549  0.2266E+00  0.2372E+02
   3.559  0.2251E+00  0.2373E+02
   3.569  0.2237E+00  0.2373E+02
   3.579  0.2223E+00  0.2373E+02
   3.589  0.2211E+00  0.2373E+02
   3.599  0.2199E+00  0.2373E+02
   3.609  0.2189E+00  0.2374E+02
   3.619  0.2179E+00  0.2374E+02
   3.629  0.2171E+00  0.2374E+02
   3.639  0.2164E+00  0.2374E+02
   3.649  0.2158E+00  0.2375E+02
   3.659  0.2153E+00  0.2375E+02
   3.669  0.2150E+00  0.2375E+02
   3.679  0.2148E+00  0.2375E+02
   3.689  0.2147E+00  0.2375E+02
   3.699  0.2148E+00  0.2376E+02
   3.709  0.2150E+00  0.2376E+02
   3.719  0.2153E+00  0.2376E+02
   3.729  0.2159E+00  0.2376E+02
   3.739  0.2165E+00  0.2376E+02
   3.749  0.2174E+00  0.2377E+02
   3.759  0.2184E+00  0.2377E+02
   3.769  0.2196E+00  0.2377E+02
   3.779  0.2209E+00  0.2377E+02
   3.789  0.2224E+00  0.2378E+02
   3.799  0.2241E+00  0.2378E+02
   3.809  0.2260E+00  0.2378E+02
   3.819  0.2281E+00  0.2378E+02
   3.829  0.2304E+00  0.2378E+02
   3.839  0.2328E+00  0.2379E+02
   3.849  0.2355E+00  0.2379E+02
   3.859  0.2383E+00  0.2379E+02
   3.869  0.2414E+00  0.2379E+02
   3.879  0.2446E+00  0.2380E+02
   3.889  0.2481E+00  0.2380E+02
   3.899  0.2518E+00  0.2380E+02
   3.909  0.2557E+00  0.2380E+02
   3.919  0.2598E+00  0.2381E+02
   3.929  0.2641E+00  0.2381E+02
   3.939  0.2686E+00  0.2381E+02
   3.949  0.2734E+00  0.2381E+02
   3.959  0.2783E+00  0.2382E+02
   3.969  0.2835E+00  0.2382E+02
   3.979  0.2889E+00  0.2382E+02
   3.989  0.2946E+00  0.2383E+02
   3.999  0.3004E+00  0.2383E+02
   4.009  0.3065E+00  0.2383E+02
   4.019  0.3128E+00  0.2384E+02
   4.029  0.3194E+00  0.2384E+02
   4.039  0.3261E+00  0.2384E+02
   4.049  0.3331E+00  0.2385E+02
   4.059  0.3403E+00  0.2385E+02
   4.069  0.3478E+00  0.2385E+02
   4.079  0.3554E+00  0.2386E+02
   4.089  0.3633E+00  0.2386E+02
   4.099  0.3714E+00  0.2386E+02
   4.109  0.3797E+00  0.2387E+02
   4.119  0.3883E+00  0.2387E+02
   4.129  0.3970E+00  0.2387E+02
   4.139  0.4060E+00  0.2388E+02
   4.149  0.4152E+00  0.2388E+02
   4.159  0.4246E+00  0.2389E+02
   4.169  0.4341E+00  0.2389E+02
   4.179  0.4439E+00  0.2390E+02
   4.189  0.4539E+00  0.2390E+02
   4.199  0.4641E+00  0.2391E+02
   4.209  0.4745E+00  0.2391E+02
   4.219  0.4851E+00  0.2391E+02
   4.229  0.4958E+00  0.2392E+02
   4.239  0.5067E+00  0.2392E+02
   4.249  0.5178E+00  0.2393E+02
   4.259  0.5291E+00  0.2394E+02
   4.269  0.5405E+00  0.2394E+02
   4.279  0.5521E+00  0.2395E+02
   4.289  0.5638E+00  0.2395E+02
   4.299  0.5757E+00  0.2396E+02
   4.309  0.5877E+00  0.2396E+02
   4.319  0.5999E+00  0.2397E+02
   4.329  0.6122E+00  0.2398E+02
   4.339  0.6246E+00  0.2398E+02
   4.349  0.6371E+00  0.2399E+02
   4.359  0.6497E+00  0.2399E+02
   4.369  0.6624E+00  0.2400E+02
   4.379  0.6752E+00  0.2401E+02
   4.389  0.6881E+00  0.2401E+02
   4.399  0.7010E+00  0.2402E+02
   4.409  0.7140E+00  0.2403E+02
   4.419  0.7271E+00  0.2404E+02
   4.429  0.7402E+00  0.2404E+02
   4.439  0.7534E+00  0.2405E+02
   4.449  0.7666E+00  0.2406E+02
   4.459  0.7798E+00  0.2407E+02
   4.469  0.7931E+00  0.2407E+02
   4.479  0.8063E+00  0.2408E+02
   4.489  0.8196E+00  0.2409E+02
   4.499  0.8328E+00  0.2410E+02
   4.509  0.8460E+00  0.2411E+02
   4.519  0.8592E+00  0.2412E+02
   4.529  0.8724E+00  0.2412E+02
   4.539  0.8855E+00  0.2413E+02
   4.549  0.8986E+00  0.2414E+02
   4.559  0.9117E+00  0.2415E+02
   4.569  0.9246E+00  0.2416E+02
   4.579  0.9375E+00  0.2417E+02
   4.589  0.9503E+00  0.2418E+02
   4.599  0.9630E+00  0.2419E+02
   4.609  0.9757E+00  0.2420E+02
   4.619  0.9882E+00  0.2421E+02
   4.629  0.1001E+01  0.2422E+02
   4.639  0.1013E+01  0.2423E+02
   4.649  0.1025E+01  0.2424E+02
   4.659  0.1037E+01  0.2425E+02
   4.669  0.1049E+01  0.2426E+02
   4.679  0.1061E+01  0.2427E+02
   4.689  0.1073E+01  0.2428E+02
   4.699  0.1084E+01  0.2429E+02
   4.709  0.1095E+01  0.2430E+02
   4.719  0.1107E+01  0.2431E+02
   4.729  0.1118E+01  0.2433E+02
   4.739  0.1129E+01  0.2434E+02
   4.749  0.1139E+01  0.2435E+02
   4.759  0.1150E+01  0.2436E+02
   4.769  0.1160E+01  0.2437E+02
   4.779  0.1170E+01  0.2438E+02
   4.789  0.1180E+01  0.2440E+02
   4.799  0.1190E+01  0.2441E+02
   4.809  0.1200E+01  0.2442E+02
   4.819  0.1209E+01  0.2443E+02
   4.829  0.1219E+01  0.2444E+02
   4.839  0.1228E+01  0.2446E+02
   4.849  0.1237E+01  0.2447E+02
   4.859  0.1246E+01  0.2448E+02
   4.869  0.1254E+01  0.2449E+02
   4.879  0.1263E+01  0.2451E+02
   4.889  0.1271E+01  0.2452E+02
   4.899  0.1279E+01  0.2453E+02
   4.909  0.1287E+01  0.2454E+02
   4.919  0.1295E+01  0.2456E+02
   4.929  0.1303E+01  0.2457E+02
   4.939  0.1310E+01  0.2458E+02
   4.949  0.1318E+01  0.2460E+02
   4.959  0.1325E+01  0.2461E+02
   4.969  0.1332E+01  0.2462E+02
   4.979  0.1339E+01  0.2464E+02
   4.989  0.1346E+01  0.2465E+02
   4.999  0.1353E+01  0.2466E+02
   5.009  0.1359E+01  0.2468E+02
   5.019  0.1366E+01  0.2469E+02
   5.029  0.1372E+01  0.2470E+02
   5.039  0.1378E+01  0.2472E+02
   5.049  0.1384E+01  0.2473E+02
   5.059  0.1391E+01  0.2475E+02
   5.069  0.1397E+01  0.2476E+02
   5.079  0.1403E+01  0.2477E+02
   5.089  0.1408E+01  0.2479E+02
   5.099  0.1414E+01  0.2480E+02
   5.109  0.1420E+01  0.2482E+02
   5.119  0.1426E+01  0.2483E+02
   5.129  0.1431E+01  0.2484E+02
   5.139  0.1437E+01  0.2486E+02
   5.149  0.1442E+01  0.2487E+02
   5.159  0.1448E+01  0.2489E+02
   5.169  0.1454E+01  0.2490E+02
   5.179  0.1459E+01  0.2492E+02
   5.189  0.1464E+01  0.2493E+02
   5.199  0.1470E+01  0.2495E+02
   5.209  0.1475E+01  0.2496E+02
   5.219  0.1481E+01  0.2498E+02
   5.229  0.1486E+01  0.2499E+02
   5.239  0.1492E+01  0.2501E+02
   5.249  0.1497E+01  0.2502E+02
   5.259  0.1502E+01  0.2504E+02
   5.269  0.1508E+01  0.2505E+02
   5.279  0.1513E+01  0.2507E+02
   5.289  0.1519E+01  0.2508E+02
   5.299  0.1524E+01  0.2510E+02
   5.309  0.1530E+01  0.2511E+02
   5.319  0.1535E+01  0.2513E+02
   5.329  0.1540E+01  0.2514E+02
   5.339  0.1546E+01  0.2516E+02
   5.349  0.1551E+01  0.2517E+02
   5.359  0.1557E+01  0.2519E+02
   5.369  0.1562E+01  0.2520E+02
   5.379  0.1568E+01  0.2522E+02
   5.389  0.1573E+01  0.2524E+02
   5.399  0.1578E+01  0.2525E+02
   5.409  0.1584E+01  0.2527E+02
   5.419  0.1589E+01  0.2528E+02
   5.429  0.1594E+01  0.2530E+02
   5.439  0.1599E+01  0.2532E+02
   5.449  0.1605E+01  0.2533E+02
   5.459  0.1610E+01  0.2535E+02
   5.469  0.1615E+01  0.2536E+02
   5.479  0.1620E+01  0.2538E+02
   5.489  0.1625E+01  0.2540E+02
   5.499  0.1630E+01  0.2541E+02
   5.509  0.1634E+01  0.2543E+02
   5.519  0.1639E+01  0.2545E+02
   5.529  0.1644E+01  0.2546E+02
   5.539  0.1648E+01  0.2548E+02
   5.549  0.1653E+01  0.2549E+02
   5.559  0.1657E+01  0.2551E+02
   5.569  0.1661E+01  0.2553E+02
   5.579  0.1665E+01  0.2554E+02
   5.589  0.1669E+01  0.2556E+02
   5.599  0.1672E+01  0.2558E+02
   5.609  0.1676E+01  0.2559E+02
   5.619  0.1679E+01  0.2561E+02
   5.629  0.1682E+01  0.2563E+02
   5.639  0.1685E+01  0.2565E+02
   5.649  0.1688E+01  0.2566E+02
   5.659  0.1691E+01  0.2568E+02
   5.669  0.1693E+01  0.2570E+02
   5.679  0.1695E+01  0.2571E+02
   5.689  0.1697E+01  0.2573E+02
   5.699  0.1699E+01  0.2575E+02
   5.709  0.1700E+01  0.2576E+02
   5.719  0.1702E+01  0.2578E+02
   5.729  0.1703E+01  0.2580E+02
   5.739  0.1704E+01  0.2581E+02
   5.749  0.1705E+01  0.2583E+02
   5.759  0.1705E+01  0.2585E+02
   5.769  0.1705E+01  0.2587E+02
   5.779  0.1705E+01  0.2588E+02
   5.789  0.1705E+01  0.2590E+02
   5.799  0.1704E+01  0.2592E+02
   5.809  0.1704E+01  0.2593E+02
   5.819  0.1703E+01  0.2595E+02
   5.829  0.1702E+01  0.2597E+02
   5.839  0.1700E+01  0.2599E+02
   5.849  0.1699E+01  0.2600E+02
   5.859  0.1697E+01  0.2602E+02
   5.869  0.1695E+01  0.2604E+02
   5.879  0.1692E+01  0.2605E+02
   5.889  0.1690E+01  0.2607E+02
   5.899  0.1687E+01  0.2609E+02
   5.909  0.1684E+01  0.2610E+02
   5.919  0.1681E+01  0.2612E+02
   5.929  0.1678E+01  0.2614E+02
   5.939  0.1674E+01  0.2615E+02
   5.949  0.1671E+01  0.2617E+02
   5.959  0.1667E+01  0.2619E+02
   5.969  0.1663E+01  0.2620E+02
   5.979  0.1658E+01  0.2622E+02
   5.989  0.1654E+01  0.2624E+02
   5.999  0.1649E+01  0.2625E+02
   6.009  0.1645E+01  0.2627E+02
   6.019  0.1640E+01  0.2629E+02
   6.029  0.1635E+01  0.2630E+02
   6.039  0.1630E+01  0.2632E+02
   6.049  0.1625E+01  0.2634E+02
   6.059  0.1619E+01  0.2635E+02
   6.069  0.1614E+01  0.2637E+02
   6.079  0.1608E+01  0.2638E+02
   6.089  0.1603E+01  0.2640E+02
   6.099  0.1597E+01  0.2642E+02
   6.109  0.1591E+01  0.2643E+02
   6.119  0.1585E+01  0.2645E+02
   6.129  0.1579E+01  0.2646E+02
   6.139  0.1573E+01  0.2648E+02
   6.149  0.1567E+01  0.2649E+02
   6.159  0.1560E+01  0.2651E+02
   6.169  0.1554E+01  0.2653E+02
   6.179  0.1548E+01  0.2654E+02
   6.189  0.1541E+01  0.2656E+02
   6.199  0.1535E+01  0.2657E+02
   6.209  0.1529E+01  0.2659E+02
   6.219  0.1522E+01  0.2660E+02
   6.229  0.1515E+01  0.2662E+02
   6.239  0.1509E+01  0.2663E+02
   6.249  0.1502E+01  0.2665E+02
   6.259  0.1496E+01  0.2666E+02
   6.269  0.1489E+01  0.2668E+02
   6.279  0.1482E+01  0.2669E+02
   6.289  0.1475E+01  0.2671E+02
   6.299  0.1469E+01  0.2672E+02
   6.309  0.1462E+01  0.2674E+02
   6.319  0.1455E+01  0.2675E+02
   6.329  0.1448E+01  0.2677E+02
   6.339  0.1441E+01  0.2678E+02
   6.349  0.1434E+01  0.2679E+02
   6.359  0.1427E+01  0.2681E+02
   6.369  0.1421E+01  0.2682E+02
   6.379  0.1414E+01  0.2684E+02
   6.389  0.1407E+01  0.2685E+02
   6.399  0.1399E+01  0.2687E+02
   6.409  0.1392E+01  0.2688E+02
   6.419  0.1385E+01  0.2689E+02
   6.429  0.1378E+01  0.2691E+02
   6.439  0.1371E+01  0.2692E+02
   6.449  0.1364E+01  0.2693E+02
   6.459  0.1356E+01  0.2695E+02
   6.469  0.1349E+01  0.2696E+02
   6.479  0.1342E+01  0.2697E+02
   6.489  0.1334E+01  0.2699E+02
   6.499  0.1327E+01  0.2700E+02
   6.509  0.1319E+01  0.2701E+02
   6.519  0.1311E+01  0.2703E+02
   6.529  0.1304E+01  0.2704E+02
   6.539  0.1296E+01  0.2705E+02
   6.549  0.1288E+01  0.2707E+02
   6.559  0.1280E+01  0.2708E+02
   6.569  0.1272E+01  0.2709E+02
   6.579  0.1264E+01  0.2710E+02
   6.589  0.1256E+01  0.2712E+02
   6.599  0.1247E+01  0.2713E+02
   6.609  0.1239E+01  0.2714E+02
   6.619  0.1230E+01  0.2715E+02
   6.629  0.1222E+01  0.2717E+02
   6.639  0.1213E+01  0.2718E+02
   6.649  0.1204E+01  0.2719E+02
   6.659  0.1196E+01  0.2720E+02
   6.669  0.1187E+01  0.2721E+02
   6.679  0.1178E+01  0.2723E+02
   6.689  0.1168E+01  0.2724E+02
   6.699  0.1159E+01  0.2725E+02
   6.709  0.1150E+01  0.2726E+02
   6.719  0.1140E+01  0.2727E+02
   6.729  0.1131E+01  0.2728E+02
   6.739  0.1121E+01  0.2729E+02
   6.749  0.1112E+01  0.2731E+02
   6.759  0.1102E+01  0.2732E+02
   6.769  0.1092E+01  0.2733E+02
   6.779  0.1082E+01  0.2734E+02
   6.789  0.1072E+01  0.2735E+02
   6.799  0.1062E+01  0.2736E+02
   6.809  0.1051E+01  0.2737E+02
   6.819  0.1041E+01  0.2738E+02
   6.829  0.1031E+01  0.2739E+02
   6.839  0.1020E+01  0.2740E+02
   6.849  0.1010E+01  0.2741E+02
   6.859  0.9993E+00  0.2742E+02
   6.869  0.9887E+00  0.2743E+02
   6.879  0.9780E+00  0.2744E+02
   6.889  0.9673E+00  0.2745E+02
   6.899  0.9565E+00  0.2746E+02
   6.909  0.9457E+00  0.2747E+02
   6.919  0.9348E+00  0.2748E+02
   6.929  0.9240E+00  0.2749E+02
   6.939  0.9131E+00  0.2750E+02
   6.949  0.9022E+00  0.2751E+02
   6.959  0.8913E+00  0.2752E+02
   6.969  0.8803E+00  0.2752E+02
   6.979  0.8694E+00  0.2753E+02
   6.989  0.8585E+00  0.2754E+02
   6.999  0.8476E+00  0.2755E+02
   7.009  0.8367E+00  0.2756E+02
   7.019  0.8259E+00  0.2757E+02
   7.029  0.8150E+00  0.2757E+02
   7.039  0.8042E+00  0.2758E+02
   7.049  0.7935E+00  0.2759E+02
   7.059  0.7828E+00  0.2760E+02
   7.069  0.7721E+00  0.2761E+02
   7.079  0.7615E+00  0.2761E+02
   7.089  0.7510E+00  0.2762E+02
   7.099  0.7405E+00  0.2763E+02
   7.109  0.7301E+00  0.2764E+02
   7.119  0.7197E+00  0.2764E+02
   7.129  0.7095E+00  0.2765E+02
   7.139  0.6993E+00  0.2766E+02
   7.149  0.6892E+00  0.2766E+02
   7.159  0.6792E+00  0.2767E+02
   7.169  0.6693E+00  0.2768E+02
   7.179  0.6596E+00  0.2768E+02
   7.189  0.6499E+00  0.2769E+02
   7.199  0.6403E+00  0.2770E+02
   7.209  0.6308E+00  0.2770E+02
   7.219  0.6215E+00  0.2771E+02
   7.229  0.6122E+00  0.2772E+02
   7.239  0.6031E+00  0.2772E+02
   7.249  0.5941E+00  0.2773E+02
   7.259  0.5852E+00  0.2773E+02
   7.269  0.5765E+00  0.2774E+02
   7.279  0.5679E+00  0.2775E+02
   7.289  0.5594E+00  0.2775E+02
   7.299  0.5510E+00  0.2776E+02
   7.309  0.5428E+00  0.2776E+02
   7.319  0.5347E+00  0.2777E+02
   7.329  0.5267E+00  0.2777E+02
   7.339  0.5189E+00  0.2778E+02
   7.349  0.5112E+00  0.2778E+02
   7.359  0.5036E+00  0.2779E+02
   7.369  0.4962E+00  0.2779E+02
   7.379  0.4889E+00  0.2780E+02
   7.389  0.4817E+00  0.2780E+02
   7.399  0.4747E+00  0.2781E+02
   7.409  0.4678E+00  0.2781E+02
   7.419  0.4610E+00  0.2782E+02
   7.429  0.4544E+00  0.2782E+02
   7.439  0.4479E+00  0.2783E+02
   7.449  0.4415E+00  0.2783E+02
   7.459  0.4353E+00  0.2783E+02
   7.469  0.4292E+00  0.2784E+02
   7.479  0.4232E+00  0.2784E+02
   7.489  0.4173E+00  0.2785E+02
   7.499  0.4116E+00  0.2785E+02
   7.509  0.4060E+00  0.2786E+02
   7.519  0.4005E+00  0.2786E+02
   7.529  0.3951E+00  0.2786E+02
   7.539  0.3899E+00  0.2787E+02
   7.549  0.3847E+00  0.2787E+02
   7.559  0.3797E+00  0.2787E+02
   7.569  0.3748E+00  0.2788E+02
   7.579  0.3700E+00  0.2788E+02
   7.589  0.3653E+00  0.2789E+02
   7.599  0.3607E+00  0.2789E+02
   7.609  0.3562E+00  0.2789E+02
   7.619  0.3518E+00  0.2790E+02
   7.629  0.3476E+00  0.2790E+02
   7.639  0.3434E+00  0.2790E+02
   7.649  0.3393E+00  0.2791E+02
   7.659  0.3353E+00  0.2791E+02
   7.669  0.3315E+00  0.2791E+02
   7.679  0.3277E+00  0.2792E+02
   7.689  0.3240E+00  0.2792E+02
   7.699  0.3204E+00  0.2792E+02
   7.709  0.3169E+00  0.2793E+02
   7.719  0.3135E+00  0.2793E+02
   7.729  0.3102E+00  0.2793E+02
   7.739  0.3069E+00  0.2794E+02
   7.749  0.3038E+00  0.2794E+02
   7.759  0.3007E+00  0.2794E+02
   7.769  0.2978E+00  0.2794E+02
   7.779  0.2949E+00  0.2795E+02
   7.789  0.2921E+00  0.2795E+02
   7.799  0.2894E+00  0.2795E+02
   7.809  0.2868E+00  0.2796E+02
   7.819  0.2843E+00  0.2796E+02
   7.829  0.2818E+00  0.2796E+02
   7.839  0.2795E+00  0.2796E+02
   7.849  0.2772E+00  0.2797E+02
   7.859  0.2751E+00  0.2797E+02
   7.869  0.2730E+00  0.2797E+02
   7.879  0.2710E+00  0.2798E+02
   7.889  0.2691E+00  0.2798E+02
   7.899  0.2673E+00  0.2798E+02
   7.909  0.2656E+00  0.2798E+02
   7.919  0.2641E+00  0.2799E+02
   7.929  0.2626E+00  0.2799E+02
   7.939  0.2612E+00  0.2799E+02
   7.949  0.2599E+00  0.2799E+02
   7.959  0.2588E+00  0.2800E+02
   7.969  0.2577E+00  0.2800E+02
   7.979  0.2568E+00  0.2800E+02
   7.989  0.2560E+00  0.2800E+02
   7.999  0.2553E+00  0.2801E+02
   8.009  0.2547E+00  0.2801E+02
   8.019  0.2543E+00  0.2801E+02
   8.029  0.2540E+00  0.2801E+02
   8.039  0.2538E+00  0.2802E+02
   8.049  0.2537E+00  0.2802E+02
   8.059  0.2539E+00  0.2802E+02
   8.069  0.2541E+00  0.2802E+02
   8.079  0.2545E+00  0.2803E+02
   8.089  0.2551E+00  0.2803E+02
   8.099  0.2558E+00  0.2803E+02
   8.109  0.2567E+00  0.2804E+02
   8.119  0.2577E+00  0.2804E+02
   8.129  0.2590E+00  0.2804E+02
   8.139  0.2604E+00  0.2804E+02
   8.149  0.2619E+00  0.2805E+02
   8.159  0.2637E+00  0.2805E+02
   8.169  0.2657E+00  0.2805E+02
   8.179  0.2678E+00  0.2805E+02
   8.189  0.2702E+00  0.2806E+02
   8.199  0.2727E+00  0.2806E+02
   8.209  0.2755E+00  0.2806E+02
   8.219  0.2785E+00  0.2806E+02
   8.229  0.2816E+00  0.2807E+02
   8.239  0.2851E+00  0.2807E+02
   8.249  0.2887E+00  0.2807E+02
   8.259  0.2925E+00  0.2808E+02
   8.269  0.2966E+00  0.2808E+02
   8.279  0.3010E+00  0.2808E+02
   8.289  0.3055E+00  0.2808E+02
   8.299  0.3103E+00  0.2809E+02
   8.309  0.3154E+00  0.2809E+02
   8.319  0.3207E+00  0.2809E+02
   8.329  0.3262E+00  0.2810E+02
   8.339  0.3320E+00  0.2810E+02
   8.349  0.3381E+00  0.2810E+02
   8.359  0.3444E+00  0.2811E+02
   8.369  0.3510E+00  0.2811E+02
   8.379  0.3578E+00  0.2811E+02
   8.389  0.3649E+00  0.2812E+02
   8.399  0.3722E+00  0.2812E+02
   8.409  0.3798E+00  0.2813E+02
   8.419  0.3877E+00  0.2813E+02
   8.429  0.3958E+00  0.2813E+02
   8.439  0.4042E+00  0.2814E+02
   8.449  0.4128E+00  0.2814E+02
   8.459  0.4217E+00  0.2815E+02
   8.469  0.4309E+00  0.2815E+02
   8.479  0.4403E+00  0.2815E+02
   8.489  0.4500E+00  0.2816E+02
   8.499  0.4599E+00  0.2816E+02
   8.509  0.4700E+00  0.2817E+02
   8.519  0.4804E+00  0.2817E+02
   8.529  0.4910E+00  0.2818E+02
   8.539  0.5019E+00  0.2818E+02
   8.549  0.5130E+00  0.2819E+02
   8.559  0.5243E+00  0.2819E+02
   8.569  0.5358E+00  0.2820E+02
   8.579  0.5475E+00  0.2820E+02
   8.589  0.5594E+00  0.2821E+02
   8.599  0.5716E+00  0.2822E+02
   8.609  0.5839E+00  0.2822E+02
   8.619  0.5964E+00  0.2823E+02
   8.629  0.6090E+00  0.2823E+02
   8.639  0.6219E+00  0.2824E+02
   8.649  0.6349E+00  0.2825E+02
   8.659  0.6480E+00  0.2825E+02
   8.669  0.6613E+00  0.2826E+02
   8.679  0.6747E+00  0.2827E+02
   8.689  0.6882E+00  0.2827E+02
   8.699  0.7018E+00  0.2828E+02
   8.709  0.7156E+00  0.2829E+02
   8.719  0.7294E+00  0.2829E+02
   8.729  0.7433E+00  0.2830E+02
   8.739  0.7573E+00  0.2831E+02
   8.749  0.7713E+00  0.2832E+02
   8.759  0.7854E+00  0.2833E+02
   8.769  0.7995E+00  0.2833E+02
   8.779  0.8136E+00  0.2834E+02
   8.789  0.8278E+00  0.2835E+02
   8.799  0.8419E+00  0.2836E+02
   8.809  0.8561E+00  0.2837E+02
   8.819  0.8702E+00  0.2838E+02
   8.829  0.8844E+00  0.2838E+02
   8.839  0.8984E+00  0.2839E+02
   8.849  0.9125E+00  0.2840E+02
   8.859  0.9264E+00  0.2841E+02
   8.869  0.9403E+00  0.2842E+02
   8.879  0.9542E+00  0.2843E+02
   8.889  0.9679E+00  0.2844E+02
   8.899  0.9816E+00  0.2845E+02
   8.909  0.9951E+00  0.2846E+02
   8.919  0.1009E+01  0.2847E+02
   8.929  0.1022E+01  0.2848E+02
   8.939  0.1035E+01  0.2849E+02
   8.949  0.1048E+01  0.2850E+02
   8.959  0.1061E+01  0.2851E+02
   8.969  0.1074E+01  0.2852E+02
   8.979  0.1087E+01  0.2853E+02
   8.989  0.1099E+01  0.2854E+02
   8.999  0.1111E+01  0.2856E+02
   9.009  0.1123E+01  0.2857E+02
   9.019  0.1135E+01  0.2858E+02
   9.029  0.1147E+01  0.2859E+02
   9.039  0.1159E+01  0.2860E+02
   9.049  0.1170E+01  0.2861E+02
   9.059  0.1182E+01  0.2862E+02
   9.069  0.1193E+01  0.2864E+02
   9.079  0.1204E+01  0.2865E+02
   9.089  0.1214E+01  0.2866E+02
   9.099  0.1225E+01  0.2867E+02
   9.109  0.1235E+01  0.2869E+02
   9.119  0.1246E+01  0.2870E+02
   9.129  0.1256E+01  0.2871E+02
   9.139  0.1265E+01  0.2872E+02
   9.149  0.1275E+01  0.2874E+02
   9.159  0.1285E+01  0.2875E+02
   9.169  0.1294E+01  0.2876E+02
   9.179  0.1303E+01  0.2877E+02
   9.189  0.1312E+01  0.2879E+02
   9.199  0.1321E+01  0.2880E+02
   9.209  0.1329E+01  0.2881E+02
   9.219  0.1338E+01  0.2883E+02
   9.229  0.1346E+01  0.2884E+02
   9.239  0.1355E+01  0.2885E+02
   9.249  0.1363E+01  0.2887E+02
   9.259  0.1371E+01  0.2888E+02
   9.269  0.1378E+01  0.2890E+02
   9.279  0.1386E+01  0.2891E+02
   9.289  0.1394E+01  0.2892E+02
   9.299  0.1401E+01  0.2894E+02
   9.309  0.1408E+01  0.2895E+02
   9.319  0.1415E+01  0.2897E+02
   9.329  0.1422E+01  0.2898E+02
   9.339  0.1429E+01  0.2899E+02
   9.349  0.1436E+01  0.2901E+02
   9.359  0.1443E+01  0.2902E+02
   9.369  0.1450E+01  0.2904E+02
   9.379  0.1456E+01  0.2905E+02
   9.389  0.1463E+01  0.2907E+02
   9.399  0.1469E+01  0.2908E+02
   9.409  0.1475E+01  0.2910E+02
   9.419  0.1482E+01  0.2911E+02
   9.429  0.1488E+01  0.2913E+02
   9.439  0.1494E+01  0.2914E+02
   9.449  0.1499E+01  0.2916E+02
   9.459  0.1505E+01  0.2917E+02
   9.469  0.1511E+01  0.2919E+02
   9.479  0.1517E+01  0.2920E+02
   9.489  0.1522E+01  0.2922E+02
   9.499  0.1527E+01  0.2923E+02
   9.509  0.1533E+01  0.2925E+02
   9.519  0.1538E+01  0.2926E+02
   9.529  0.1543E+01  0.2928E+02
   9.539  0.1548E+01  0.2929E+02
   9.549  0.1553E+01  0.2931E+02
   9.559  0.1557E+01  0.2932E+02
   9.569  0.1562E+01  0.2934E+02
   9.579  0.1566E+01  0.2936E+02
   9.589  0.1571E+01  0.2937E+02
   9.599  0.1575E+01  0.2939E+02
   9.609  0.1579E+01  0.2940E+02
   9.619  0.1582E+01  0.2942E+02
   9.629  0.1586E+01  0.2943E+02
   9.639  0.1589E+01  0.2945E+02
   9.649  0.1592E+01  0.2947E+02
   9.659  0.1595E+01  0.2948E+02
   9.669  0.1598E+01  0.2950E+02
   9.679  0.1601E+01  0.2951E+02
   9.689  0.1603E+01  0.2953E+02
   9.699  0.1605E+01  0.2955E+02
   9.709  0.1607E+01  0.2956E+02
   9.719  0.1608E+01  0.2958E+02
   9.729  0.1610E+01  0.2959E+02
   9.739  0.1611E+01  0.2961E+02
   9.749  0.1611E+01  0.2963E+02
   9.759  0.1612E+01  0.2964E+02
   9.769  0.1612E+01  0.2966E+02
   9.779  0.1612E+01  0.2968E+02
   9.789  0.1611E+01  0.2969E+02
   9.799  0.1611E+01  0.2971E+02
   9.809  0.1610E+01  0.2972E+02
   9.819  0.1608E+01  0.2974E+02
   9.829  0.1607E+01  0.2976E+02
   9.839  0.1604E+01  0.2977E+02
   9.849  0.1602E+01  0.2979E+02
   9.859  0.1599E+01  0.2980E+02
   9.869  0.1596E+01  0.2982E+02
   9.879  0.1593E+01  0.2984E+02
   9.889  0.1589E+01  0.2985E+02
   9.899  0.1585E+01  0.2987E+02
   9.909  0.1581E+01  0.2988E+02
   9.919  0.1576E+01  0.2990E+02
   9.929  0.1571E+01  0.2991E+02
   9.939  0.1566E+01  0.2993E+02
   9.949  0.1560E+01  0.2995E+02
   9.959  0.1554E+01  0.2996E+02
   9.969  0.1548E+01  0.2998E+02
   9.979  0.1541E+01  0.2999E+02
   9.989  0.1534E+01  0.3001E+02
   9.999  0.1527E+01  0.3002E+02
  10.009  0.1520E+01  0.3004E+02
  10.019  0.1512E+01  0.3005E+02
  10.029  0.1504E+01  0.3007E+02
  10.039  0.1496E+01  0.3008E+02
  10.049  0.1488E+01  0.3010E+02
  10.059  0.1479E+01  0.3011E+02
  10.069  0.1470E+01  0.3013E+02
  10.079  0.1461E+01  0.3014E+02
  10.089  0.1452E+01  0.3016E+02
  10.099  0.1443E+01  0.3017E+02
  10.109  0.1434E+01  0.3019E+02
  10.119  0.1424E+01  0.3020E+02
  10.129  0.1415E+01  0.3021E+02
  10.139  0.1405E+01  0.3023E+02
  10.149  0.1396E+01  0.3024E+02
  10.159  0.1386E+01  0.3026E+02
  10.169  0.1376E+01  0.3027E+02
  10.179  0.1366E+01  0.3028E+02
  10.189  0.1357E+01  0.3030E+02
  10.199  0.1347E+01  0.3031E+02
  10.209  0.1338E+01  0.3032E+02
  10.219  0.1328E+01  0.3034E+02
  10.229  0.1319E+01  0.3035E+02
  10.239  0.1309E+01  0.3036E+02
  10.249  0.1300E+01  0.3038E+02
  10.259  0.1291E+01  0.3039E+02
  10.269  0.1282E+01  0.3040E+02
  10.279  0.1274E+01  0.3041E+02
  10.289  0.1265E+01  0.3043E+02
  10.299  0.1257E+01  0.3044E+02
  10.309  0.1249E+01  0.3045E+02
  10.319  0.1242E+01  0.3046E+02
  10.329  0.1234E+01  0.3048E+02
  10.339  0.1227E+01  0.3049E+02
  10.349  0.1220E+01  0.3050E+02
  10.359  0.1214E+01  0.3051E+02
  10.369  0.1207E+01  0.3053E+02
  10.379  0.1201E+01  0.3054E+02
  10.389  0.1196E+01  0.3055E+02
  10.399  0.1191E+01  0.3056E+02
  10.409  0.1186E+01  0.3057E+02
  10.419  0.1181E+01  0.3059E+02
  10.429  0.1177E+01  0.3060E+02
  10.439  0.1174E+01  0.3061E+02
  10.449  0.1170E+01  0.3062E+02
  10.459  0.1167E+01  0.3063E+02
  10.469  0.1165E+01  0.3064E+02
  10.479  0.1163E+01  0.3066E+02
  10.489  0.1161E+01  0.3067E+02
  10.499  0.1160E+01  0.3068E+02
  10.509  0.1159E+01  0.3069E+02
  10.519  0.1158E+01  0.3070E+02
  10.529  0.1158E+01  0.3071E+02
  10.539  0.1158E+01  0.3073E+02
  10.549  0.1159E+01  0.3074E+02
  10.559  0.1160E+01  0.3075E+02
  10.569  0.1161E+01  0.3076E+02
  10.579  0.1163E+01  0.3077E+02
  10.589  0.1165E+01  0.3078E+02
  10.599  0.1168E+01  0.3079E+02
  10.609  0.1171E+01  0.3081E+02
  10.619  0.1174E+01  0.3082E+02
  10.629  0.1177E+01  0.3083E+02
  10.639  0.1181E+01  0.3084E+02
  10.649  0.1185E+01  0.3085E+02
  10.659  0.1190E+01  0.3087E+02
  10.669  0.1195E+01  0.3088E+02
  10.679  0.1200E+01  0.3089E+02
  10.689  0.1205E+01  0.3090E+02
  10.699  0.1210E+01  0.3091E+02
  10.709  0.1216E+01  0.3093E+02
  10.719  0.1222E+01  0.3094E+02
  10.729  0.1228E+01  0.3095E+02
  10.739  0.1235E+01  0.3096E+02
  10.749  0.1241E+01  0.3098E+02
  10.759  0.1248E+01  0.3099E+02
  10.769  0.1255E+01  0.3100E+02
  10.779  0.1262E+01  0.3101E+02
  10.789  0.1269E+01  0.3103E+02
  10.799  0.1277E+01  0.3104E+02
  10.809  0.1284E+01  0.3105E+02
  10.819  0.1291E+01  0.3106E+02
  10.829  0.1299E+01  0.3108E+02
  10.839  0.1307E+01  0.3109E+02
  10.849  0.1314E+01  0.3110E+02
  10.859  0.1322E+01  0.3112E+02
  10.869  0.1330E+01  0.3113E+02
  10.879  0.1337E+01  0.3114E+02
  10.889  0.1345E+01  0.3116E+02
  10.899  0.1353E+01  0.3117E+02
  10.909  0.1360E+01  0.3118E+02
  10.919  0.1368E+01  0.3120E+02
  10.929  0.1375E+01  0.3121E+02
  10.939  0.1383E+01  0.3122E+02
  10.949  0.1390E+01  0.3124E+02
  10.959  0.1397E+01  0.3125E+02
  10.969  0.1404E+01  0.3127E+02
  10.979  0.1411E+01  0.3128E+02
  10.989  0.1418E+01  0.3130E+02
  10.999  0.1425E+01  0.3131E+02
  11.009  0.1432E+01  0.3132E+02
  11.019  0.1438E+01  0.3134E+02
  11.029  0.1445E+01  0.3135E+02
  11.039  0.1451E+01  0.3137E+02
  11.049  0.1457E+01  0.3138E+02
  11.059  0.1463E+01  0.3140E+02
  11.069  0.1469E+01  0.3141E+02
  11.079  0.1475E+01  0.3143E+02
  11.089  0.1480E+01  0.3144E+02
  11.099  0.1486E+01  0.3146E+02
  11.109  0.1491E+01  0.3147E+02
  11.119  0.1496E+01  0.3149E+02
  11.129  0.1501E+01  0.3150E+02
  11.139  0.1506E+01  0.3152E+02
  11.149  0.1510E+01  0.3153E+02
  11.159  0.1515E+01  0.3155E+02
  11.169  0.1519E+01  0.3156E+02
  11.179  0.1523E+01  0.3158E+02
  11.189  0.1527E+01  0.3159E+02
  11.199  0.1531E+01  0.3161E+02
  11.209  0.1535E+01  0.3162E+02
  11.219  0.1538E+01  0.3164E+02
  11.229  0.1542E+01  0.3165E+02
  11.239  0.1545E+01  0.3167E+02
  11.249  0.1548E+01  0.3168E+02
  11.259  0.1551E+01  0.3170E+02
  11.269  0.1554E+01  0.3171E+02
  11.279  0.1557E+01  0.3173E+02
  11.289  0.1560E+01  0.3175E+02
  11.299  0.1562E+01  0.3176E+02
  11.309  0.1565E+01  0.3178E+02
  11.319  0.1567E+01  0.3179E+02
  11.329  0.1570E+01  0.3181E+02
  11.339  0.1572E+01  0.3182E+02
  11.349  0.1575E+01  0.3184E+02
  11.359  0.1577E+01  0.3186E+02
  11.369  0.1579E+01  0.3187E+02
  11.379  0.1582E+01  0.3189E+02
  11.389  0.1584E+01  0.3190E+02
  11.399  0.1586E+01  0.3192E+02
  11.409  0.1588E+01  0.3193E+02
  11.419  0.1590E+01  0.3195E+02
  11.429  0.1593E+01  0.3197E+02
  11.439  0.1595E+01  0.3198E+02
  11.449  0.1597E+01  0.3200E+02
  11.459  0.1599E+01  0.3201E+02
  11.469  0.1602E+01  0.3203E+02
  11.479  0.1604E+01  0.3205E+02
  11.489  0.1606E+01  0.3206E+02
  11.499  0.1609E+01  0.3208E+02
  11.509  0.1611E+01  0.3209E+02
  11.519  0.1614E+01  0.3211E+02
  11.529  0.1616E+01  0.3213E+02
  11.539  0.1619E+01  0.3214E+02
  11.549  0.1621E+01  0.3216E+02
  11.559  0.1624E+01  0.3218E+02
  11.569  0.1627E+01  0.3219E+02
  11.579  0.1629E+01  0.3221E+02
  11.589  0.1632E+01  0.3222E+02
  11.599  0.1635E+01  0.3224E+02
  11.609  0.1638E+01  0.3226E+02
  11.619  0.1641E+01  0.3227E+02
  11.629  0.1644E+01  0.3229E+02
  11.639  0.1647E+01  0.3231E+02
  11.649  0.1650E+01  0.3232E+02
  11.659  0.1653E+01  0.3234E+02
  11.669  0.1656E+01  0.3236E+02
  11.679  0.1660E+01  0.3237E+02
  11.689  0.1663E+01  0.3239E+02
  11.699  0.1666E+01  0.3241E+02
  11.709  0.1669E+01  0.3242E+02
  11.719  0.1672E+01  0.3244E+02
  11.729  0.1676E+01  0.3246E+02
  11.739  0.1679E+01  0.3247E+02
  11.749  0.1682E+01  0.3249E+02
  11.759  0.1685E+01  0.3251E+02
  11.769  0.1688E+01  0.3252E+02
  11.779  0.1691E+01  0.3254E+02
  11.789  0.1695E+01  0.3256E+02
  11.799  0.1698E+01  0.3257E+02
  11.809  0.1701E+01  0.3259E+02
  11.819  0.1703E+01  0.3261E+02
  11.829  0.1706E+01  0.3263E+02
  11.839  0.1709E+01  0.3264E+02
  11.849  0.1712E+01  0.3266E+02
  11.859  0.1714E+01  0.3268E+02
  11.869  0.1717E+01  0.3269E+02
  11.879  0.1719E+01  0.3271E+02
  11.889  0.1721E+01  0.3273E+02
  11.899  0.1723E+01  0.3275E+02
  11.909  0.1725E+01  0.3276E+02
  11.919  0.1727E+01  0.3278E+02
  11.929  0.1729E+01  0.3280E+02
  11.939  0.1730E+01  0.3281E+02
  11.949  0.1731E+01  0.3283E+02
  11.959  0.1733E+01  0.3285E+02
  11.969  0.1734E+01  0.3287E+02
  11.979  0.1735E+01  0.3288E+02
  11.989  0.1735E+01  0.3290E+02
  11.999  0.1736E+01  0.3292E+02
  12.009  0.1736E+01  0.3294E+02
  12.019  0.1736E+01  0.3295E+02
  12.029  0.1736E+01  0.3297E+02
  12.039  0.1736E+01  0.3299E+02
  12.049  0.1736E+01  0.3301E+02
  12.059  0.1735E+01  0.3302E+02
  12.069  0.1734E+01  0.3304E+02
  12.079  0.1733E+01  0.3306E+02
  12.089  0.1732E+01  0.3308E+02
  12.099  0.1731E+01  0.3309E+02
  12.109  0.1729E+01  0.3311E+02
  12.119  0.1727E+01  0.3313E+02
  12.129  0.1725E+01  0.3314E+02
  12.139  0.1723E+01  0.3316E+02
  12.149  0.1721E+01  0.3318E+02
  12.159  0.1719E+01  0.3320E+02
  12.169  0.1716E+01  0.3321E+02
  12.179  0.1713E+01  0.3323E+02
  12.189  0.1710E+01  0.3325E+02
  12.199  0.1707E+01  0.3326E+02
  12.209  0.1703E+01  0.3328E+02
  12.219  0.1700E+01  0.3330E+02
  12.229  0.1696E+01  0.3332E+02
  12.239  0.1692E+01  0.3333E+02
  12.249  0.1688E+01  0.3335E+02
  12.259  0.1684E+01  0.3337E+02
  12.269  0.1680E+01  0.3338E+02
  12.279  0.1675E+01  0.3340E+02
  12.289  0.1670E+01  0.3342E+02
  12.299  0.1666E+01  0.3343E+02
  12.309  0.1661E+01  0.3345E+02
  12.319  0.1656E+01  0.3347E+02
  12.329  0.1650E+01  0.3348E+02
  12.339  0.1645E+01  0.3350E+02
  12.349  0.1639E+01  0.3352E+02
  12.359  0.1634E+01  0.3353E+02
  12.369  0.1628E+01  0.3355E+02
  12.379  0.1622E+01  0.3356E+02
  12.389  0.1616E+01  0.3358E+02
  12.399  0.1610E+01  0.3360E+02
  12.409  0.1604E+01  0.3361E+02
  12.419  0.1598E+01  0.3363E+02
  12.429  0.1591E+01  0.3364E+02
  12.439  0.1585E+01  0.3366E+02
  12.449  0.1578E+01  0.3368E+02
  12.459  0.1572E+01  0.3369E+02
  12.469  0.1565E+01  0.3371E+02
  12.479  0.1558E+01  0.3372E+02
  12.489  0.1551E+01  0.3374E+02
  12.499  0.1544E+01  0.3375E+02
  12.509  0.1537E+01  0.3377E+02
  12.519  0.1529E+01  0.3378E+02
  12.529  0.1522E+01  0.3380E+02
  12.539  0.1515E+01  0.3382E+02
  12.549  0.1507E+01  0.3383E+02
  12.559  0.1500E+01  0.3385E+02
  12.569  0.1492E+01  0.3386E+02
  12.579  0.1485E+01  0.3387E+02
  12.589  0.1477E+01  0.3389E+02
  12.599  0.1469E+01  0.3390E+02
  12.609  0.1462E+01  0.3392E+02
  12.619  0.1454E+01  0.3393E+02
  12.629  0.1446E+01  0.3395E+02
  12.639  0.1438E+01  0.3396E+02
  12.649  0.1430E+01  0.3398E+02
  12.659  0.1422E+01  0.3399E+02
  12.669  0.1415E+01  0.3400E+02
  12.679  0.1407E+01  0.3402E+02
  12.689  0.1399E+01  0.3403E+02
  12.699  0.1391E+01  0.3405E+02
  12.709  0.1383E+01  0.3406E+02
  12.719  0.1375E+01  0.3407E+02
  12.729  0.1367E+01  0.3409E+02
  12.739  0.1359E+01  0.3410E+02
  12.749  0.1351E+01  0.3412E+02
  12.759  0.1343E+01  0.3413E+02
  12.769  0.1336E+01  0.3414E+02
  12.779  0.1328E+01  0.3416E+02
  12.789  0.1320E+01  0.3417E+02
  12.799  0.1313E+01  0.3418E+02
  12.809  0.1305E+01  0.3419E+02
  12.819  0.1298E+01  0.3421E+02
  12.829  0.1290E+01  0.3422E+02
  12.839  0.1283E+01  0.3423E+02
  12.849  0.1276E+01  0.3425E+02
  12.859  0.1269E+01  0.3426E+02
  12.869  0.1262E+01  0.3427E+02
  12.879  0.1255E+01  0.3428E+02
  12.889  0.1248E+01  0.3430E+02
  12.899  0.1242E+01  0.3431E+02
  12.909  0.1235E+01  0.3432E+02
  12.919  0.1229E+01  0.3433E+02
  12.929  0.1223E+01  0.3435E+02
  12.939  0.1217E+01  0.3436E+02
  12.949  0.1211E+01  0.3437E+02
  12.959  0.1205E+01  0.3438E+02
  12.969  0.1200E+01  0.3439E+02
  12.979  0.1195E+01  0.3441E+02
  12.989  0.1190E+01  0.3442E+02
  12.999  0.1185E+01  0.3443E+02
  13.009  0.1180E+01  0.3444E+02
  13.019  0.1176E+01  0.3445E+02
  13.029  0.1172E+01  0.3447E+02
  13.039  0.1168E+01  0.3448E+02
  13.049  0.1164E+01  0.3449E+02
  13.059  0.1160E+01  0.3450E+02
  13.069  0.1157E+01  0.3451E+02
  13.079  0.1154E+01  0.3452E+02
  13.089  0.1151E+01  0.3453E+02
  13.099  0.1148E+01  0.3455E+02
  13.109  0.1145E+01  0.3456E+02
  13.119  0.1143E+01  0.3457E+02
  13.129  0.1141E+01  0.3458E+02
  13.139  0.1139E+01  0.3459E+02
  13.149  0.1138E+01  0.3460E+02
  13.159  0.1137E+01  0.3461E+02
  13.169  0.1135E+01  0.3463E+02
  13.179  0.1135E+01  0.3464E+02
  13.189  0.1134E+01  0.3465E+02
  13.199  0.1134E+01  0.3466E+02
  13.209  0.1133E+01  0.3467E+02
  13.219  0.1133E+01  0.3468E+02
  13.229  0.1134E+01  0.3469E+02
  13.239  0.1134E+01  0.3471E+02
  13.249  0.1135E+01  0.3472E+02
  13.259  0.1135E+01  0.3473E+02
  13.269  0.1136E+01  0.3474E+02
  13.279  0.1138E+01  0.3475E+02
  13.289  0.1139E+01  0.3476E+02
  13.299  0.1140E+01  0.3477E+02
  13.309  0.1142E+01  0.3478E+02
  13.319  0.1144E+01  0.3480E+02
  13.329  0.1146E+01  0.3481E+02
  13.339  0.1148E+01  0.3482E+02
  13.349  0.1151E+01  0.3483E+02
  13.359  0.1153E+01  0.3484E+02
  13.369  0.1156E+01  0.3485E+02
  13.379  0.1158E+01  0.3487E+02
  13.389  0.1161E+01  0.3488E+02
  13.399  0.1164E+01  0.3489E+02
  13.409  0.1167E+01  0.3490E+02
  13.419  0.1170E+01  0.3491E+02
  13.429  0.1173E+01  0.3492E+02
  13.439  0.1177E+01  0.3494E+02
  13.449  0.1180E+01  0.3495E+02
  13.459  0.1184E+01  0.3496E+02
  13.469  0.1187E+01  0.3497E+02
  13.479  0.1191E+01  0.3498E+02
  13.489  0.1194E+01  0.3499E+02
  13.499  0.1198E+01  0.3501E+02
  13.509  0.1201E+01  0.3502E+02
  13.519  0.1205E+01  0.3503E+02
  13.529  0.1209E+01  0.3504E+02
  13.539  0.1212E+01  0.3506E+02
  13.549  0.1216E+01  0.3507E+02
  13.559  0.1220E+01  0.3508E+02
  13.569  0.1223E+01  0.3509E+02
  13.579  0.1227E+01  0.3510E+02
  13.589  0.1231E+01  0.3512E+02
  13.599  0.1235E+01  0.3513E+02
  13.609  0.1238E+01  0.3514E+02
  13.619  0.1242E+01  0.3515E+02
  13.629  0.1245E+01  0.3517E+02
  13.639  0.1249E+01  0.3518E+02
  13.649  0.1253E+01  0.3519E+02
  13.659  0.1256E+01  0.3520E+02
  13.669  0.1260E+01  0.3522E+02
  13.679  0.1263E+01  0.3523E+02
  13.689  0.1266E+01  0.3524E+02
  13.699  0.1270E+01  0.3525E+02
  13.709  0.1273E+01  0.3527E+02
  13.719  0.1276E+01  0.3528E+02
  13.729  0.1280E+01  0.3529E+02
  13.739  0.1283E+01  0.3531E+02
  13.749  0.1286E+01  0.3532E+02
  13.759  0.1289E+01  0.3533E+02
  13.769  0.1292E+01  0.3534E+02
  13.779  0.1295E+01  0.3536E+02
  13.789  0.1298E+01  0.3537E+02
  13.799  0.1301E+01  0.3538E+02
  13.809  0.1304E+01  0.3540E+02
  13.819  0.1307E+01  0.3541E+02
  13.829  0.1310E+01  0.3542E+02
  13.839  0.1313E+01  0.3544E+02
  13.849  0.1316E+01  0.3545E+02
  13.859  0.1319E+01  0.3546E+02
  13.869  0.1322E+01  0.3547E+02
  13.879  0.1325E+01  0.3549E+02
  13.889  0.1328E+01  0.3550E+02
  13.899  0.1330E+01  0.3551E+02
  13.909  0.1333E+01  0.3553E+02
  13.919  0.1336E+01  0.3554E+02
  13.929  0.1339E+01  0.3555E+02
  13.939  0.1342E+01  0.3557E+02
  13.949  0.1345E+01  0.3558E+02
  13.959  0.1348E+01  0.3560E+02
  13.969  0.1351E+01  0.3561E+02
  13.979  0.1354E+01  0.3562E+02
  13.989  0.1357E+01  0.3564E+02
  13.999  0.1359E+01  0.3565E+02
  14.009  0.1363E+01  0.3566E+02
  14.019  0.1366E+01  0.3568E+02
  14.029  0.1369E+01  0.3569E+02
  14.039  0.1372E+01  0.3570E+02
  14.049  0.1375E+01  0.3572E+02
  14.059  0.1378E+01  0.3573E+02
  14.069  0.1381E+01  0.3575E+02
  14.079  0.1385E+01  0.3576E+02
  14.089  0.1388E+01  0.3577E+02
  14.099  0.1391E+01  0.3579E+02
  14.109  0.1395E+01  0.3580E+02
  14.119  0.1398E+01  0.3581E+02
  14.129  0.1401E+01  0.3583E+02
  14.139  0.1405E+01  0.3584E+02
  14.149  0.1408E+01  0.3586E+02
  14.159  0.1412E+01  0.3587E+02
  14.169  0.1416E+01  0.3589E+02
  14.179  0.1419E+01  0.3590E+02
  14.189  0.1423E+01  0.3591E+02
  14.199  0.1427E+01  0.3593E+02
  14.209  0.1430E+01  0.3594E+02
  14.219  0.1434E+01  0.3596E+02
  14.229  0.1438E+01  0.3597E+02
  14.239  0.1442E+01  0.3599E+02
  14.249  0.1446E+01  0.3600E+02
  14.259  0.1450E+01  0.3601E+02
  14.269  0.1454E+01  0.3603E+02
  14.279  0.1457E+01  0.3604E+02
  14.289  0.1461E+01  0.3606E+02
  14.299  0.1465E+01  0.3607E+02
  14.309  0.1469E+01  0.3609E+02
  14.319  0.1473E+01  0.3610E+02
  14.329  0.1477E+01  0.3612E+02
  14.339  0.1481E+01  0.3613E+02
  14.349  0.1485E+01  0.3615E+02
  14.359  0.1489E+01  0.3616E+02
  14.369  0.1493E+01  0.3618E+02
  14.379  0.1497E+01  0.3619E+02
  14.389  0.1501E+01  0.3621E+02
  14.399  0.1505E+01  0.3622E+02
  14.409  0.1508E+01  0.3624E+02
  14.419  0.1512E+01  0.3625E+02
  14.429  0.1516E+01  0.3627E+02
  14.439  0.1520E+01  0.3628E+02
  14.449  0.1524E+01  0.3630E+02
  14.459  0.1527E+01  0.3631E+02
  14.469  0.1531E+01  0.3633E+02
  14.479  0.1535E+01  0.3634E+02
  14.489  0.1538E+01  0.3636E+02
  14.499  0.1542E+01  0.3637E+02
  14.509  0.1545E+01  0.3639E+02
  14.519  0.1549E+01  0.3640E+02
  14.529  0.1552E+01  0.3642E+02
  14.539  0.1555E+01  0.3644E+02
  14.549  0.1559E+01  0.3645E+02
  14.559  0.1562E+01  0.3647E+02
  14.569  0.1565E+01  0.3648E+02
  14.579  0.1568E+01  0.3650E+02
  14.589  0.1571E+01  0.3651E+02
  14.599  0.1574E+01  0.3653E+02
  14.609  0.1577E+01  0.3655E+02
  14.619  0.1580E+01  0.3656E+02
  14.629  0.1583E+01  0.3658E+02
  14.639  0.1586E+01  0.3659E+02
  14.649  0.1589E+01  0.3661E+02
  14.659  0.1592E+01  0.3663E+02
  14.669  0.1594E+01  0.3664E+02
  14.679  0.1597E+01  0.3666E+02
  14.689  0.1599E+01  0.3667E+02
  14.699  0.1602E+01  0.3669E+02
  14.709  0.1604E+01  0.3671E+02
  14.719  0.1607E+01  0.3672E+02
  14.729  0.1609E+01  0.3674E+02
  14.739  0.1612E+01  0.3675E+02
  14.749  0.1614E+01  0.3677E+02
  14.759  0.1616E+01  0.3679E+02
  14.769  0.1619E+01  0.3680E+02
  14.779  0.1621E+01  0.3682E+02
  14.789  0.1623E+01  0.3683E+02
  14.799  0.1625E+01  0.3685E+02
  14.809  0.1627E+01  0.3687E+02
  14.819  0.1629E+01  0.3688E+02
  14.829  0.1631E+01  0.3690E+02
  14.839  0.1633E+01  0.3692E+02
  14.849  0.1635E+01  0.3693E+02
  14.859  0.1637E+01  0.3695E+02
  14.869  0.1639E+01  0.3696E+02
  14.879  0.1641E+01  0.3698E+02
  14.889  0.1643E+01  0.3700E+02
  14.899  0.1645E+01  0.3701E+02
  14.909  0.1647E+01  0.3703E+02
  14.919  0.1649E+01  0.3705E+02
  14.929  0.1651E+01  0.3706E+02
  14.939  0.1653E+01  0.3708E+02
  14.949  0.1655E+01  0.3710E+02
  14.959  0.1657E+01  0.3711E+02
  14.969  0.1659E+01  0.3713E+02
  14.979  0.1661E+01  0.3715E+02
  14.989  0.1663E+01  0.3716E+02
  14.999  0.1664E+01  0.3718E+02
  15.009  0.1666E+01  0.3720E+02
  15.019  0.1668E+01  0.3721E+02
  15.029  0.1670E+01  0.3723E+02
  15.039  0.1672E+01  0.3725E+02
  15.049  0.1674E+01  0.3726E+02
  15.059  0.1676E+01  0.3728E+02
  15.069  0.1678E+01  0.3730E+02
  15.079  0.1680E+01  0.3731E+02
  15.089  0.1682E+01  0.3733E+02
  15.099  0.1684E+01  0.3735E+02
  15.109  0.1686E+01  0.3736E+02
  15.119  0.1687E+01  0.3738E+02
  15.129  0.1689E+01  0.3740E+02
  15.139  0.1691E+01  0.3741E+02
  15.149  0.1693E+01  0.3743E+02
  15.159  0.1695E+01  0.3745E+02
  15.169  0.1697E+01  0.3747E+02
  15.179  0.1699E+01  0.3748E+02
  15.189  0.1701E+01  0.3750E+02
  15.199  0.1702E+01  0.3752E+02
  15.209  0.1704E+01  0.3753E+02
  15.219  0.1706E+01  0.3755E+02
  15.229  0.1708E+01  0.3757E+02
  15.239  0.1710E+01  0.3758E+02
  15.249  0.1711E+01  0.3760E+02
  15.259  0.1713E+01  0.3762E+02
  15.269  0.1715E+01  0.3764E+02
  15.279  0.1716E+01  0.3765E+02
  15.289  0.1718E+01  0.3767E+02
  15.299  0.1719E+01  0.3769E+02
  15.309  0.1721E+01  0.3771E+02
  15.319  0.1722E+01  0.3772E+02
  15.329  0.1724E+01  0.3774E+02
  15.339  0.1725E+01  0.3776E+02
  15.349  0.1726E+01  0.3777E+02
  15.359  0.1727E+01  0.3779E+02
  15.369  0.1728E+01  0.3781E+02
  15.379  0.1729E+01  0.3783E+02
  15.389  0.1730E+01  0.3784E+02
  15.399  0.1731E+01  0.3786E+02
  15.409  0.1732E+01  0.3788E+02
  15.419  0.1732E+01  0.3790E+02
  15.429  0.1733E+01  0.3791E+02
  15.439  0.1734E+01  0.3793E+02
  15.449  0.1734E+01  0.3795E+02
  15.459  0.1734E+01  0.3796E+02
  15.469  0.1734E+01  0.3798E+02
  15.479  0.1734E+01  0.3800E+02
  15.489  0.1734E+01  0.3802E+02
  15.499  0.1734E+01  0.3803E+02
  15.509  0.1734E+01  0.3805E+02
  15.519  0.1733E+01  0.3807E+02
  15.529  0.1733E+01  0.3809E+02
  15.539  0.1732E+01  0.3810E+02
  15.549  0.1731E+01  0.3812E+02
  15.559  0.1731E+01  0.3814E+02
  15.569  0.1730E+01  0.3816E+02
  15.579  0.1729E+01  0.3817E+02
  15.589  0.1727E+01  0.3819E+02
  15.599  0.1726E+01  0.3821E+02
  15.609  0.1725E+01  0.3822E+02
  15.619  0.1723E+01  0.3824E+02
  15.629  0.1721E+01  0.3826E+02
  15.639  0.1720E+01  0.3828E+02
  15.649  0.1718E+01  0.3829E+02
  15.659  0.1716E+01  0.3831E+02
  15.669  0.1714E+01  0.3833E+02
  15.679  0.1711E+01  0.3834E+02
  15.689  0.1709E+01  0.3836E+02
  15.699  0.1707E+01  0.3838E+02
  15.709  0.1704E+01  0.3840E+02
  15.719  0.1702E+01  0.3841E+02
  15.729  0.1699E+01  0.3843E+02
  15.739  0.1697E+01  0.3845E+02
  15.749  0.1694E+01  0.3846E+02
  15.759  0.1692E+01  0.3848E+02
  15.769  0.1689E+01  0.3850E+02
  15.779  0.1686E+01  0.3851E+02
  15.789  0.1683E+01  0.3853E+02
  15.799  0.1680E+01  0.3855E+02
  15.809  0.1678E+01  0.3856E+02
  15.819  0.1675E+01  0.3858E+02
  15.829  0.1672E+01  0.3860E+02
  15.839  0.1669E+01  0.3861E+02
  15.849  0.1666E+01  0.3863E+02
  15.859  0.1664E+01  0.3865E+02
  15.869  0.1661E+01  0.3866E+02
  15.879  0.1658E+01  0.3868E+02
  15.889  0.1656E+01  0.3870E+02
  15.899  0.1653E+01  0.3871E+02
  15.909  0.1651E+01  0.3873E+02
  15.919  0.1648E+01  0.3875E+02
  15.929  0.1646E+01  0.3876E+02
  15.939  0.1644E+01  0.3878E+02
  15.949  0.1642E+01  0.3880E+02
  15.959  0.1640E+01  0.3881E+02
  15.969  0.1638E+01  0.3883E+02
  15.979  0.1636E+01  0.3885E+02
  15.989  0.1635E+01  0.3886E+02
  15.999  0.1633E+01  0.3888E+02
  16.009  0.1632E+01  0.3889E+02
  16.019  0.1631E+01  0.3891E+02
  16.029  0.1630E+01  0.3893E+02
  16.039  0.1629E+01  0.3894E+02
  16.049  0.1628E+01  0.3896E+02
  16.059  0.1628E+01  0.3898E+02
  16.069  0.1627E+01  0.3899E+02
  16.079  0.1627E+01  0.3901E+02
  16.089  0.1627E+01  0.3903E+02
  16.099  0.1628E+01  0.3904E+02
  16.109  0.1628E+01  0.3906E+02
  16.119  0.1629E+01  0.3907E+02
  16.129  0.1629E+01  0.3909E+02
  16.139  0.1630E+01  0.3911E+02
  16.149  0.1632E+01  0.3912E+02
  16.159  0.1633E+01  0.3914E+02
  16.169  0.1635E+01  0.3916E+02
  16.179  0.1636E+01  0.3917E+02
  16.189  0.1638E+01  0.3919E+02
  16.199  0.1640E+01  0.3920E+02
  16.209  0.1643E+01  0.3922E+02
  16.219  0.1645E+01  0.3924E+02
  16.229  0.1648E+01  0.3925E+02
  16.239  0.1651E+01  0.3927E+02
  16.249  0.1654E+01  0.3929E+02
  16.259  0.1657E+01  0.3930E+02
  16.269  0.1661E+01  0.3932E+02
  16.279  0.1664E+01  0.3934E+02
  16.289  0.1668E+01  0.3935E+02
  16.299  0.1672E+01  0.3937E+02
  16.309  0.1676E+01  0.3939E+02
  16.319  0.1680E+01  0.3940E+02
  16.329  0.1684E+01  0.3942E+02
  16.339  0.1689E+01  0.3944E+02
  16.349  0.1693E+01  0.3945E+02
  16.359  0.1698E+01  0.3947E+02
  16.369  0.1703E+01  0.3949E+02
  16.379  0.1708E+01  0.3951E+02
  16.389  0.1713E+01  0.3952E+02
  16.399  0.1718E+01  0.3954E+02
  16.409  0.1723E+01  0.3956E+02
  16.419  0.1728E+01  0.3957E+02
  16.429  0.1734E+01  0.3959E+02
  16.439  0.1739E+01  0.3961E+02
  16.449  0.1744E+01  0.3963E+02
  16.459  0.1750E+01  0.3964E+02
  16.469  0.1756E+01  0.3966E+02
  16.479  0.1761E+01  0.3968E+02
  16.489  0.1767E+01  0.3970E+02
  16.499  0.1772E+01  0.3971E+02
  16.509  0.1778E+01  0.3973E+02
  16.519  0.1784E+01  0.3975E+02
  16.529  0.1789E+01  0.3977E+02
  16.539  0.1795E+01  0.3979E+02
  16.549  0.1801E+01  0.3980E+02
  16.559  0.1806E+01  0.3982E+02
  16.569  0.1812E+01  0.3984E+02
  16.579  0.1818E+01  0.3986E+02
  16.589  0.1823E+01  0.3988E+02
  16.599  0.1829E+01  0.3990E+02
  16.609  0.1834E+01  0.3991E+02
  16.619  0.1840E+01  0.3993E+02
  16.629  0.1845E+01  0.3995E+02
  16.639  0.1851E+01  0.3997E+02
  16.649  0.1856E+01  0.3999E+02
  16.659  0.1862E+01  0.4001E+02
  16.669  0.1867E+01  0.4002E+02
  16.679  0.1872E+01  0.4004E+02
  16.689  0.1877E+01  0.4006E+02
  16.699  0.1882E+01  0.4008E+02
  16.709  0.1887E+01  0.4010E+02
  16.719  0.1892E+01  0.4012E+02
  16.729  0.1897E+01  0.4014E+02
  16.739  0.1902E+01  0.4016E+02
  16.749  0.1907E+01  0.4018E+02
  16.759  0.1911E+01  0.4019E+02
  16.769  0.1916E+01  0.4021E+02
  16.779  0.1920E+01  0.4023E+02
  16.789  0.1925E+01  0.4025E+02
  16.799  0.1929E+01  0.4027E+02
  16.809  0.1933E+01  0.4029E+02
  16.819  0.1938E+01  0.4031E+02
  16.829  0.1942E+01  0.4033E+02
  16.839  0.1946E+01  0.4035E+02
  16.849  0.1950E+01  0.4037E+02
  16.859  0.1953E+01  0.4039E+02
  16.869  0.1957E+01  0.4041E+02
  16.879  0.1961E+01  0.4043E+02
  16.889  0.1964E+01  0.4045E+02
  16.899  0.1968E+01  0.4047E+02
  16.909  0.1971E+01  0.4049E+02
  16.919  0.1975E+01  0.4051E+02
  16.929  0.1978E+01  0.4053E+02
  16.939  0.1981E+01  0.4055E+02
  16.949  0.1984E+01  0.4057E+02
  16.959  0.1987E+01  0.4059E+02
  16.969  0.1990E+01  0.4061E+02
  16.979  0.1993E+01  0.4063E+02
  16.989  0.1995E+01  0.4065E+02
  16.999  0.1998E+01  0.4067E+02
  17.009  0.2001E+01  0.4069E+02
  17.019  0.2003E+01  0.4071E+02
  17.029  0.2005E+01  0.4073E+02
  17.039  0.2008E+01  0.4075E+02
  17.049  0.2010E+01  0.4077E+02
  17.059  0.2012E+01  0.4079E+02
  17.069  0.2014E+01  0.4081E+02
  17.079  0.2016E+01  0.4083E+02
  17.089  0.2018E+01  0.4085E+02
  17.099  0.2019E+01  0.4087E+02
  17.109  0.2021E+01  0.4089E+02
  17.119  0.2023E+01  0.4091E+02
  17.129  0.2024E+01  0.4093E+02
  17.139  0.2026E+01  0.4095E+02
  17.149  0.2027E+01  0.4097E+02
  17.159  0.2029E+01  0.4099E+02
  17.169  0.2030E+01  0.4101E+02
  17.179  0.2031E+01  0.4103E+02
  17.189  0.2032E+01  0.4105E+02
  17.199  0.2033E+01  0.4107E+02
  17.209  0.2034E+01  0.4109E+02
  17.219  0.2035E+01  0.4111E+02
  17.229  0.2036E+01  0.4113E+02
  17.239  0.2037E+01  0.4115E+02
  17.249  0.2038E+01  0.4117E+02
  17.259  0.2039E+01  0.4119E+02
  17.269  0.2039E+01  0.4121E+02
  17.279  0.2040E+01  0.4123E+02
  17.289  0.2040E+01  0.4125E+02
  17.299  0.2041E+01  0.4127E+02
  17.309  0.2042E+01  0.4129E+02
  17.319  0.2042E+01  0.4131E+02
  17.329  0.2043E+01  0.4133E+02
  17.339  0.2043E+01  0.4135E+02
  17.349  0.2044E+01  0.4138E+02
  17.359  0.2044E+01  0.4140E+02
  17.369  0.2044E+01  0.4142E+02
  17.379  0.2045E+01  0.4144E+02
  17.389  0.2045E+01  0.4146E+02
  17.399  0.2045E+01  0.4148E+02
  17.409  0.2046E+01  0.4150E+02
  17.419  0.2046E+01  0.4152E+02
  17.429  0.2047E+01  0.4154E+02
  17.439  0.2047E+01  0.4156E+02
  17.449  0.2047E+01  0.4158E+02
  17.459  0.2048E+01  0.4160E+02
  17.469  0.2048E+01  0.4162E+02
  17.479  0.2048E+01  0.4164E+02
  17.489  0.2049E+01  0.4166E+02
  17.499  0.2049E+01  0.4168E+02
  17.509  0.2049E+01  0.4170E+02
  17.519  0.2050E+01  0.4172E+02
  17.529  0.2050E+01  0.4174E+02
  17.539  0.2051E+01  0.4176E+02
  17.549  0.2051E+01  0.4178E+02
  17.559  0.2052E+01  0.4181E+02
  17.569  0.2052E+01  0.4183E+02
  17.579  0.2052E+01  0.4185E+02
  17.589  0.2053E+01  0.4187E+02
  17.599  0.2053E+01  0.4189E+02
  17.609  0.2054E+01  0.4191E+02
  17.619  0.2055E+01  0.4193E+02
  17.629  0.2055E+01  0.4195E+02
  17.639  0.2056E+01  0.4197E+02
  17.649  0.2056E+01  0.4199E+02
  17.659  0.2057E+01  0.4201E+02
  17.669  0.2057E+01  0.4203E+02
  17.679  0.2058E+01  0.4205E+02
  17.689  0.2059E+01  0.4207E+02
  17.699  0.2059E+01  0.4209E+02
  17.709  0.2060E+01  0.4211E+02
  17.719  0.2061E+01  0.4213E+02
  17.729  0.2061E+01  0.4215E+02
  17.739  0.2062E+01  0.4218E+02
  17.749  0.2062E+01  0.4220E+02
  17.759  0.2063E+01  0.4222E+02
  17.769  0.2063E+01  0.4224E+02
  17.779  0.2064E+01  0.4226E+02
  17.789  0.2064E+01  0.4228E+02
  17.799  0.2065E+01  0.4230E+02
  17.809  0.2065E+01  0.4232E+02
  17.819  0.2066E+01  0.4234E+02
  17.829  0.2066E+01  0.4236E+02
  17.839  0.2067E+01  0.4238E+02
  17.849  0.2067E+01  0.4240E+02
  17.859  0.2067E+01  0.4242E+02
  17.869  0.2067E+01  0.4244E+02
  17.879  0.2067E+01  0.4246E+02
  17.889  0.2067E+01  0.4249E+02
  17.899  0.2067E+01  0.4251E+02
  17.909  0.2067E+01  0.4253E+02
  17.919  0.2067E+01  0.4255E+02
  17.929  0.2067E+01  0.4257E+02
  17.939  0.2066E+01  0.4259E+02
  17.949  0.2066E+01  0.4261E+02
  17.959  0.2065E+01  0.4263E+02
  17.969  0.2065E+01  0.4265E+02
  17.979  0.2064E+01  0.4267E+02
  17.989  0.2063E+01  0.4269E+02
  17.999  0.2062E+01  0.4271E+02
  18.009  0.2061E+01  0.4273E+02
  18.019  0.2060E+01  0.4275E+02
  18.029  0.2058E+01  0.4277E+02
  18.039  0.2056E+01  0.4279E+02
  18.049  0.2055E+01  0.4282E+02
  18.059  0.2053E+01  0.4284E+02
  18.069  0.2051E+01  0.4286E+02
  18.079  0.2048E+01  0.4288E+02
  18.089  0.2046E+01  0.4290E+02
  18.099  0.2043E+01  0.4292E+02
  18.109  0.2041E+01  0.4294E+02
  18.119  0.2038E+01  0.4296E+02
  18.129  0.2034E+01  0.4298E+02
  18.139  0.2031E+01  0.4300E+02
  18.149  0.2027E+01  0.4302E+02
  18.159  0.2024E+01  0.4304E+02
  18.169  0.2020E+01  0.4306E+02
  18.179  0.2015E+01  0.4308E+02
  18.189  0.2011E+01  0.4310E+02
  18.199  0.2006E+01  0.4312E+02
  18.209  0.2002E+01  0.4314E+02
  18.219  0.1996E+01  0.4316E+02
  18.229  0.1991E+01  0.4318E+02
  18.239  0.1986E+01  0.4320E+02
  18.249  0.1980E+01  0.4322E+02
  18.259  0.1974E+01  0.4324E+02
  18.269  0.1967E+01  0.4326E+02
  18.279  0.1961E+01  0.4328E+02
  18.289  0.1954E+01  0.4330E+02
  18.299  0.1947E+01  0.4332E+02
  18.309  0.1940E+01  0.4334E+02
  18.319  0.1933E+01  0.4336E+02
  18.329  0.1925E+01  0.4338E+02
  18.339  0.1917E+01  0.4339E+02
  18.349  0.1909E+01  0.4341E+02
  18.359  0.1901E+01  0.4343E+02
  18.369  0.1893E+01  0.4345E+02
  18.379  0.1884E+01  0.4347E+02
  18.389  0.1875E+01  0.4349E+02
  18.399  0.1866E+01  0.4351E+02
  18.409  0.1857E+01  0.4353E+02
  18.419  0.1848E+01  0.4355E+02
  18.429  0.1838E+01  0.4356E+02
  18.439  0.1828E+01  0.4358E+02
  18.449  0.1818E+01  0.4360E+02
  18.459  0.1808E+01  0.4362E+02
  18.469  0.1798E+01  0.4364E+02
  18.479  0.1788E+01  0.4365E+02
  18.489  0.1778E+01  0.4367E+02
  18.499  0.1767E+01  0.4369E+02
  18.509  0.1757E+01  0.4371E+02
  18.519  0.1746E+01  0.4372E+02
  18.529  0.1736E+01  0.4374E+02
  18.539  0.1725E+01  0.4376E+02
  18.549  0.1715E+01  0.4378E+02
  18.559  0.1704E+01  0.4379E+02
  18.569  0.1693E+01  0.4381E+02
  18.579  0.1683E+01  0.4383E+02
  18.589  0.1672E+01  0.4384E+02
  18.599  0.1661E+01  0.4386E+02
  18.609  0.1651E+01  0.4388E+02
  18.619  0.1640E+01  0.4389E+02
  18.629  0.1630E+01  0.4391E+02
  18.639  0.1620E+01  0.4393E+02
  18.649  0.1609E+01  0.4394E+02
  18.659  0.1599E+01  0.4396E+02
  18.669  0.1590E+01  0.4397E+02
  18.679  0.1580E+01  0.4399E+02
  18.689  0.1570E+01  0.4401E+02
  18.699  0.1561E+01  0.4402E+02
  18.709  0.1552E+01  0.4404E+02
  18.719  0.1543E+01  0.4405E+02
  18.729  0.1534E+01  0.4407E+02
  18.739  0.1526E+01  0.4408E+02
  18.749  0.1517E+01  0.4410E+02
  18.759  0.1509E+01  0.4411E+02
  18.769  0.1502E+01  0.4413E+02
  18.779  0.1494E+01  0.4414E+02
  18.789  0.1487E+01  0.4416E+02
  18.799  0.1480E+01  0.4417E+02
  18.809  0.1474E+01  0.4419E+02
  18.819  0.1467E+01  0.4420E+02
  18.829  0.1461E+01  0.4422E+02
  18.839  0.1456E+01  0.4423E+02
  18.849  0.1451E+01  0.4425E+02
  18.859  0.1446E+01  0.4426E+02
  18.869  0.1441E+01  0.4427E+02
  18.879  0.1437E+01  0.4429E+02
  18.889  0.1433E+01  0.4430E+02
  18.899  0.1429E+01  0.4432E+02
  18.909  0.1426E+01  0.4433E+02
  18.919  0.1423E+01  0.4435E+02
  18.929  0.1420E+01  0.4436E+02
  18.939  0.1418E+01  0.4437E+02
  18.949  0.1416E+01  0.4439E+02
  18.959  0.1415E+01  0.4440E+02
  18.969  0.1413E+01  0.4442E+02
  18.979  0.1412E+01  0.4443E+02
  18.989  0.1412E+01  0.4444E+02
  18.999  0.1411E+01  0.4446E+02
  19.009  0.1411E+01  0.4447E+02
  19.019  0.1411E+01  0.4449E+02
  19.029  0.1412E+01  0.4450E+02
  19.039  0.1413E+01  0.4452E+02
  19.049  0.1414E+01  0.4453E+02
  19.059  0.1415E+01  0.4454E+02
  19.069  0.1416E+01  0.4456E+02
  19.079  0.1418E+01  0.4457E+02
  19.089  0.1420E+01  0.4459E+02
  19.099  0.1422E+01  0.4460E+02
  19.109  0.1425E+01  0.4461E+02
  19.119  0.1427E+01  0.4463E+02
  19.129  0.1430E+01  0.4464E+02
  19.139  0.1433E+01  0.4466E+02
  19.149  0.1435E+01  0.4467E+02
  19.159  0.1439E+01  0.4469E+02
  19.169  0.1442E+01  0.4470E+02
  19.179  0.1445E+01  0.4472E+02
  19.189  0.1448E+01  0.4473E+02
  19.199  0.1452E+01  0.4474E+02
  19.209  0.1455E+01  0.4476E+02
  19.219  0.1459E+01  0.4477E+02
  19.229  0.1462E+01  0.4479E+02
  19.239  0.1466E+01  0.4480E+02
  19.249  0.1469E+01  0.4482E+02
  19.259  0.1473E+01  0.4483E+02
  19.269  0.1476E+01  0.4485E+02
  19.279  0.1480E+01  0.4486E+02
  19.289  0.1483E+01  0.4488E+02
  19.299  0.1486E+01  0.4489E+02
  19.309  0.1489E+01  0.4491E+02
  19.319  0.1493E+01  0.4492E+02
  19.329  0.1496E+01  0.4494E+02
  19.339  0.1499E+01  0.4495E+02
  19.349  0.1502E+01  0.4497E+02
  19.359  0.1505E+01  0.4498E+02
  19.369  0.1507E+01  0.4500E+02
  19.379  0.1510E+01  0.4501E+02
  19.389  0.1512E+01  0.4503E+02
  19.399  0.1515E+01  0.4504E+02
  19.409  0.1517E+01  0.4506E+02
  19.419  0.1519E+01  0.4507E+02
  19.429  0.1521E+01  0.4509E+02
  19.439  0.1523E+01  0.4510E+02
  19.449  0.1524E+01  0.4512E+02
  19.459  0.1526E+01  0.4513E+02
  19.469  0.1527E+01  0.4515E+02
  19.479  0.1528E+01  0.4516E+02
  19.489  0.1529E+01  0.4518E+02
  19.499  0.1530E+01  0.4519E+02
  19.509  0.1531E+01  0.4521E+02
  19.519  0.1532E+01  0.4522E+02
  19.529  0.1533E+01  0.4524E+02
  19.539  0.1533E+01  0.4526E+02
  19.549  0.1533E+01  0.4527E+02
  19.559  0.1534E+01  0.4529E+02
  19.569  0.1534E+01  0.4530E+02
  19.579  0.1534E+01  0.4532E+02
  19.589  0.1534E+01  0.4533E+02
  19.599  0.1534E+01  0.4535E+02
  19.609  0.1534E+01  0.4536E+02
  19.619  0.1534E+01  0.4538E+02
  19.629  0.1533E+01  0.4539E+02
  19.639  0.1533E+01  0.4541E+02
  19.649  0.1533E+01  0.4542E+02
  19.659  0.1533E+01  0.4544E+02
  19.669  0.1532E+01  0.4545E+02
  19.679  0.1532E+01  0.4547E+02
  19.689  0.1531E+01  0.4549E+02
  19.699  0.1531E+01  0.4550E+02
  19.709  0.1531E+01  0.4552E+02
  19.719  0.1530E+01  0.4553E+02
  19.729  0.1530E+01  0.4555E+02
  19.739  0.1530E+01  0.4556E+02
  19.749  0.1530E+01  0.4558E+02
  19.759  0.1529E+01  0.4559E+02
  19.769  0.1529E+01  0.4561E+02
  19.779  0.1529E+01  0.4562E+02
  19.789  0.1529E+01  0.4564E+02
  19.799  0.1529E+01  0.4565E+02
  19.809  0.1530E+01  0.4567E+02
  19.819  0.1530E+01  0.4568E+02
  19.829  0.1530E+01  0.4570E+02
  19.839  0.1531E+01  0.4571E+02
  19.849  0.1531E+01  0.4573E+02
  19.859  0.1532E+01  0.4575E+02
  19.869  0.1533E+01  0.4576E+02
  19.879  0.1534E+01  0.4578E+02
  19.889  0.1535E+01  0.4579E+02
  19.899  0.1536E+01  0.4581E+02
  19.909  0.1537E+01  0.4582E+02
  19.919  0.1539E+01  0.4584E+02
  19.929  0.1540E+01  0.4585E+02
  19.939  0.1542E+01  0.4587E+02
  19.949  0.1543E+01  0.4588E+02
  19.959  0.1545E+01  0.4590E+02
  19.969  0.1547E+01  0.4591E+02
  19.979  0.1549E+01  0.4593E+02
  19.989  0.1551E+01  0.4595E+02
  19.999  0.1554E+01  0.4596E+02
  20.009  0.1556E+01  0.4598E+02
  20.019  0.1558E+01  0.4599E+02
  20.029  0.1561E+01  0.4601E+02
  20.039  0.1564E+01  0.4602E+02
  20.049  0.1566E+01  0.4604E+02
  20.059  0.1569E+01  0.4605E+02
  20.069  0.1572E+01  0.4607E+02
  20.079  0.1575E+01  0.4609E+02
  20.089  0.1578E+01  0.4610E+02
  20.099  0.1581E+01  0.4612E+02
  20.109  0.1584E+01  0.4613E+02
  20.119  0.1587E+01  0.4615E+02
  20.129  0.1590E+01  0.4617E+02
  20.139  0.1593E+01  0.4618E+02
  20.149  0.1596E+01  0.4620E+02
  20.159  0.1599E+01  0.4621E+02
  20.169  0.1603E+01  0.4623E+02
  20.179  0.1606E+01  0.4625E+02
  20.189  0.1609E+01  0.4626E+02
  20.199  0.1612E+01  0.4628E+02
  20.209  0.1615E+01  0.4629E+02
  20.219  0.1618E+01  0.4631E+02
  20.229  0.1621E+01  0.4633E+02
  20.239  0.1623E+01  0.4634E+02
  20.249  0.1626E+01  0.4636E+02
  20.259  0.1629E+01  0.4638E+02
  20.269  0.1631E+01  0.4639E+02
  20.279  0.1634E+01  0.4641E+02
  20.289  0.1636E+01  0.4642E+02
  20.299  0.1639E+01  0.4644E+02
  20.309  0.1641E+01  0.4646E+02
  20.319  0.1643E+01  0.4647E+02
  20.329  0.1645E+01  0.4649E+02
  20.339  0.1646E+01  0.4651E+02
  20.349  0.1648E+01  0.4652E+02
  20.359  0.1649E+01  0.4654E+02
  20.369  0.1650E+01  0.4656E+02
  20.379  0.1652E+01  0.4657E+02
  20.389  0.1652E+01  0.4659E+02
  20.399  0.1653E+01  0.4661E+02
  20.409  0.1654E+01  0.4662E+02
  20.419  0.1654E+01  0.4664E+02
  20.429  0.1654E+01  0.4665E+02
  20.439  0.1654E+01  0.4667E+02
  20.449  0.1654E+01  0.4669E+02
  20.459  0.1653E+01  0.4670E+02
  20.469  0.1652E+01  0.4672E+02
  20.479  0.1651E+01  0.4674E+02
  20.489  0.1650E+01  0.4675E+02
  20.499  0.1649E+01  0.4677E+02
  20.509  0.1647E+01  0.4679E+02
  20.519  0.1645E+01  0.4680E+02
  20.529  0.1643E+01  0.4682E+02
  20.539  0.1640E+01  0.4684E+02
  20.549  0.1638E+01  0.4685E+02
  20.559  0.1635E+01  0.4687E+02
  20.569  0.1631E+01  0.4689E+02
  20.579  0.1628E+01  0.4690E+02
  20.589  0.1624E+01  0.4692E+02
  20.599  0.1620E+01  0.4693E+02
  20.609  0.1616E+01  0.4695E+02
  20.619  0.1611E+01  0.4697E+02
  20.629  0.1606E+01  0.4698E+02
  20.639  0.1601E+01  0.4700E+02
  20.649  0.1595E+01  0.4701E+02
  20.659  0.1590E+01  0.4703E+02
  20.669  0.1583E+01  0.4705E+02
  20.679  0.1577E+01  0.4706E+02
  20.689  0.1570E+01  0.4708E+02
  20.699  0.1563E+01  0.4709E+02
  20.709  0.1556E+01  0.4711E+02
  20.719  0.1549E+01  0.4712E+02
  20.729  0.1541E+01  0.4714E+02
  20.739  0.1532E+01  0.4715E+02
  20.749  0.1524E+01  0.4717E+02
  20.759  0.1515E+01  0.4719E+02
  20.769  0.1506E+01  0.4720E+02
  20.779  0.1497E+01  0.4722E+02
  20.789  0.1487E+01  0.4723E+02
  20.799  0.1477E+01  0.4725E+02
  20.809  0.1467E+01  0.4726E+02
  20.819  0.1456E+01  0.4727E+02
  20.829  0.1445E+01  0.4729E+02
  20.839  0.1434E+01  0.4730E+02
  20.849  0.1422E+01  0.4732E+02
  20.859  0.1411E+01  0.4733E+02
  20.869  0.1399E+01  0.4735E+02
  20.879  0.1386E+01  0.4736E+02
  20.889  0.1374E+01  0.4737E+02
  20.899  0.1361E+01  0.4739E+02
  20.909  0.1348E+01  0.4740E+02
  20.919  0.1334E+01  0.4741E+02
  20.929  0.1321E+01  0.4743E+02
  20.939  0.1307E+01  0.4744E+02
  20.949  0.1292E+01  0.4745E+02
  20.959  0.1278E+01  0.4747E+02
  20.969  0.1263E+01  0.4748E+02
  20.979  0.1248E+01  0.4749E+02
  20.989  0.1233E+01  0.4750E+02
  20.999  0.1218E+01  0.4751E+02
  21.009  0.1202E+01  0.4753E+02
  21.019  0.1187E+01  0.4754E+02
  21.029  0.1171E+01  0.4755E+02
  21.039  0.1155E+01  0.4756E+02
  21.049  0.1138E+01  0.4757E+02
  21.059  0.1122E+01  0.4758E+02
  21.069  0.1105E+01  0.4760E+02
  21.079  0.1089E+01  0.4761E+02
  21.089  0.1072E+01  0.4762E+02
  21.099  0.1055E+01  0.4763E+02
  21.109  0.1038E+01  0.4764E+02
  21.119  0.1020E+01  0.4765E+02
  21.129  0.1003E+01  0.4766E+02
  21.139  0.9858E+00  0.4767E+02
  21.149  0.9684E+00  0.4768E+02
  21.159  0.9509E+00  0.4769E+02
  21.169  0.9333E+00  0.4770E+02
  21.179  0.9157E+00  0.4771E+02
  21.189  0.8981E+00  0.4772E+02
  21.199  0.8805E+00  0.4772E+02
  21.209  0.8629E+00  0.4773E+02
  21.219  0.8453E+00  0.4774E+02
  21.229  0.8277E+00  0.4775E+02
  21.239  0.8101E+00  0.4776E+02
  21.249  0.7926E+00  0.4777E+02
  21.259  0.7751E+00  0.4777E+02
  21.269  0.7577E+00  0.4778E+02
  21.279  0.7404E+00  0.4779E+02
  21.289  0.7232E+00  0.4780E+02
  21.299  0.7060E+00  0.4780E+02
  21.309  0.6890E+00  0.4781E+02
  21.319  0.6721E+00  0.4782E+02
  21.329  0.6553E+00  0.4782E+02
  21.339  0.6387E+00  0.4783E+02
  21.349  0.6222E+00  0.4784E+02
  21.359  0.6059E+00  0.4784E+02
  21.369  0.5897E+00  0.4785E+02
  21.379  0.5737E+00  0.4785E+02
  21.389  0.5579E+00  0.4786E+02
  21.399  0.5423E+00  0.4786E+02
  21.409  0.5268E+00  0.4787E+02
  21.419  0.5116E+00  0.4787E+02
  21.429  0.4966E+00  0.4788E+02
  21.439  0.4818E+00  0.4788E+02
  21.449  0.4672E+00  0.4789E+02
  21.459  0.4529E+00  0.4789E+02
  21.469  0.4388E+00  0.4790E+02
  21.479  0.4249E+00  0.4790E+02
  21.489  0.4113E+00  0.4791E+02
  21.499  0.3979E+00  0.4791E+02
  21.509  0.3848E+00  0.4791E+02
  21.519  0.3719E+00  0.4792E+02
  21.529  0.3593E+00  0.4792E+02
  21.539  0.3469E+00  0.4792E+02
  21.549  0.3348E+00  0.4793E+02
  21.559  0.3230E+00  0.4793E+02
  21.569  0.3114E+00  0.4793E+02
  21.579  0.3001E+00  0.4794E+02
  21.589  0.2891E+00  0.4794E+02
  21.599  0.2784E+00  0.4794E+02
  21.609  0.2679E+00  0.4795E+02
  21.619  0.2576E+00  0.4795E+02
  21.629  0.2477E+00  0.4795E+02
  21.639  0.2380E+00  0.4795E+02
  21.649  0.2286E+00  0.4796E+02
  21.659  0.2194E+00  0.4796E+02
  21.669  0.2105E+00  0.4796E+02
  21.679  0.2018E+00  0.4796E+02
  21.689  0.1934E+00  0.4796E+02
  21.699  0.1853E+00  0.4797E+02
  21.709  0.1774E+00  0.4797E+02
  21.719  0.1698E+00  0.4797E+02
  21.729  0.1624E+00  0.4797E+02
  21.739  0.1553E+00  0.4797E+02
  21.749  0.1483E+00  0.4797E+02
  21.759  0.1417E+00  0.4797E+02
  21.769  0.1352E+00  0.4798E+02
  21.779  0.1290E+00  0.4798E+02
  21.789  0.1230E+00  0.4798E+02
  21.799  0.1172E+00  0.4798E+02
  21.809  0.1116E+00  0.4798E+02
  21.819  0.1063E+00  0.4798E+02
  21.829  0.1011E+00  0.4798E+02
  21.839  0.9617E-01  0.4798E+02
  21.849  0.9141E-01  0.4799E+02
  21.859  0.8683E-01  0.4799E+02
  21.869  0.8244E-01  0.4799E+02
  21.879  0.7823E-01  0.4799E+02
  21.889  0.7420E-01  0.4799E+02
  21.899  0.7034E-01  0.4799E+02
  21.909  0.6664E-01  0.4799E+02
  21.919  0.6310E-01  0.4799E+02
  21.929  0.5972E-01  0.4799E+02
  21.939  0.5648E-01  0.4799E+02
  21.949  0.5340E-01  0.4799E+02
  21.959  0.5045E-01  0.4799E+02
  21.969  0.4764E-01  0.4799E+02
  21.979  0.4496E-01  0.4799E+02
  21.989  0.4241E-01  0.4799E+02
  21.999  0.3999E-01  0.4799E+02
  22.009  0.3768E-01  0.4799E+02
  22.019  0.3548E-01  0.4799E+02
  22.029  0.3339E-01  0.4800E+02
  22.039  0.3141E-01  0.4800E+02
  22.049  0.2953E-01  0.4800E+02
  22.059  0.2775E-01  0.4800E+02
  22.069  0.2606E-01  0.4800E+02
  22.079  0.2446E-01  0.4800E+02
  22.089  0.2294E-01  0.4800E+02
  22.099  0.2151E-01  0.4800E+02
  22.109  0.2015E-01  0.4800E+02
  22.119  0.1887E-01  0.4800E+02
  22.129  0.1766E-01  0.4800E+02
  22.139  0.1652E-01  0.4800E+02
  22.149  0.1544E-01  0.4800E+02
  22.159  0.1443E-01  0.4800E+02
  22.169  0.1347E-01  0.4800E+02
  22.179  0.1257E-01  0.4800E+02
  22.189  0.1173E-01  0.4800E+02
  22.199  0.1093E-01  0.4800E+02
  22.209  0.1019E-01  0.4800E+02
  22.219  0.9483E-02  0.4800E+02
  22.229  0.8825E-02  0.4800E+02
  22.239  0.8207E-02  0.4800E+02
  22.249  0.7628E-02  0.4800E+02
  22.259  0.7086E-02  0.4800E+02
  22.269  0.6579E-02  0.4800E+02
  22.279  0.6104E-02  0.4800E+02
  22.289  0.5660E-02  0.4800E+02
  22.299  0.5245E-02  0.4800E+02
  22.309  0.4858E-02  0.4800E+02
  22.319  0.4497E-02  0.4800E+02
  22.329  0.4160E-02  0.4800E+02
  22.339  0.3847E-02  0.4800E+02
  22.349  0.3554E-02  0.4800E+02
  22.359  0.3282E-02  0.4800E+02
  22.369  0.3029E-02  0.4800E+02
  22.379  0.2794E-02  0.4800E+02
  22.389  0.2576E-02  0.4800E+02
  22.399  0.2373E-02  0.4800E+02
  22.409  0.2185E-02  0.4800E+02
  22.419  0.2010E-02  0.4800E+02
  22.429  0.1849E-02  0.4800E+02
  22.439  0.1699E-02  0.4800E+02
  22.449  0.1561E-02  0.4800E+02
  22.459  0.1433E-02  0.4800E+02
  22.469  0.1314E-02  0.4800E+02
  22.479  0.1205E-02  0.4800E+02
  22.489  0.1104E-02  0.4800E+02
  22.499  0.1011E-02  0.4800E+02
  22.509  0.9254E-03  0.4800E+02
  22.519  0.8464E-03  0.4800E+02
  22.529  0.7736E-03  0.4800E+02
  22.539  0.7067E-03  0.4800E+02
  22.549  0.6452E-03  0.4800E+02
  22.559  0.5887E-03  0.4800E+02
  22.569  0.5368E-03  0.4800E+02
  22.579  0.4891E-03  0.4800E+02
  22.589  0.4455E-03  0.4800E+02
  22.599  0.4054E-03  0.4800E+02
  22.609  0.3688E-03  0.4800E+02
  22.619  0.3352E-03  0.4800E+02
  22.629  0.3046E-03  0.4800E+02
  22.639  0.2765E-03  0.4800E+02
  22.649  0.2509E-03  0.4800E+02
  22.659  0.2275E-03  0.4800E+02
  22.669  0.2062E-03  0.4800E+02
  22.679  0.1867E-03  0.4800E+02
  22.689  0.1690E-03  0.4800E+02
  22.699  0.1529E-03  0.4800E+02
  22.709  0.1382E-03  0.4800E+02
  22.719  0.1248E-03  0.4800E+02
  22.729  0.1127E-03  0.4800E+02
  22.739  0.1017E-03  0.4800E+02
  22.749  0.9170E-04  0.4800E+02
  22.759  0.8264E-04  0.4800E+02
  22.769  0.7442E-04  0.4800E+02
  22.779  0.6698E-04  0.4800E+02
  22.789  0.6025E-04  0.4800E+02
  22.799  0.5416E-04  0.4800E+02
  22.809  0.4865E-04  0.4800E+02
  22.819  0.4367E-04  0.4800E+02
  22.829  0.3918E-04  0.4800E+02
  22.839  0.3513E-04  0.4800E+02
  22.849  0.3148E-04  0.4800E+02
  22.859  0.2819E-04  0.4800E+02
  22.869  0.2523E-04  0.4800E+02
  22.879  0.2256E-04  0.4800E+02
  22.889  0.2017E-04  0.4800E+02
  22.899  0.1801E-04  0.4800E+02
