#  E (eV)   dos(E)     Int dos(E) EFermi =    7.984 eV
 -15.482  0.4940E-03  0.4940E-05
 -15.472  0.5535E-03  0.1048E-04
 -15.462  0.6199E-03  0.1667E-04
 -15.452  0.6937E-03  0.2361E-04
 -15.442  0.7758E-03  0.3137E-04
 -15.432  0.8671E-03  0.4004E-04
 -15.422  0.9685E-03  0.4972E-04
 -15.412  0.1081E-02  0.6053E-04
 -15.402  0.1206E-02  0.7259E-04
 -15.392  0.1344E-02  0.8603E-04
 -15.382  0.1497E-02  0.1010E-03
 -15.372  0.1667E-02  0.1177E-03
 -15.362  0.1855E-02  0.1362E-03
 -15.352  0.2062E-02  0.1569E-03
 -15.342  0.2292E-02  0.1798E-03
 -15.332  0.2545E-02  0.2052E-03
 -15.322  0.2824E-02  0.2335E-03
 -15.312  0.3132E-02  0.2648E-03
 -15.302  0.3471E-02  0.2995E-03
 -15.292  0.3844E-02  0.3379E-03
 -15.282  0.4255E-02  0.3805E-03
 -15.272  0.4707E-02  0.4275E-03
 -15.262  0.5203E-02  0.4796E-03
 -15.252  0.5748E-02  0.5371E-03
 -15.242  0.6346E-02  0.6005E-03
 -15.232  0.7001E-02  0.6705E-03
 -15.222  0.7720E-02  0.7477E-03
 -15.212  0.8506E-02  0.8328E-03
 -15.202  0.9367E-02  0.9265E-03
 -15.192  0.1031E-01  0.1030E-02
 -15.182  0.1134E-01  0.1143E-02
 -15.172  0.1246E-01  0.1268E-02
 -15.162  0.1369E-01  0.1404E-02
 -15.152  0.1502E-01  0.1555E-02
 -15.142  0.1648E-01  0.1719E-02
 -15.132  0.1807E-01  0.1900E-02
 -15.122  0.1979E-01  0.2098E-02
 -15.112  0.2167E-01  0.2315E-02
 -15.102  0.2371E-01  0.2552E-02
 -15.092  0.2593E-01  0.2811E-02
 -15.082  0.2833E-01  0.3094E-02
 -15.072  0.3094E-01  0.3404E-02
 -15.062  0.3377E-01  0.3742E-02
 -15.052  0.3684E-01  0.4110E-02
 -15.042  0.4015E-01  0.4512E-02
 -15.032  0.4374E-01  0.4949E-02
 -15.022  0.4762E-01  0.5425E-02
 -15.012  0.5180E-01  0.5943E-02
 -15.002  0.5633E-01  0.6506E-02
 -14.992  0.6120E-01  0.7118E-02
 -14.982  0.6646E-01  0.7783E-02
 -14.972  0.7212E-01  0.8504E-02
 -14.962  0.7822E-01  0.9286E-02
 -14.952  0.8478E-01  0.1013E-01
 -14.942  0.9183E-01  0.1105E-01
 -14.932  0.9940E-01  0.1205E-01
 -14.922  0.1075E+00  0.1312E-01
 -14.912  0.1163E+00  0.1428E-01
 -14.902  0.1256E+00  0.1554E-01
 -14.892  0.1356E+00  0.1690E-01
 -14.882  0.1464E+00  0.1836E-01
 -14.872  0.1578E+00  0.1994E-01
 -14.862  0.1701E+00  0.2164E-01
 -14.852  0.1832E+00  0.2347E-01
 -14.842  0.1972E+00  0.2544E-01
 -14.832  0.2122E+00  0.2757E-01
 -14.822  0.2281E+00  0.2985E-01
 -14.812  0.2451E+00  0.3230E-01
 -14.802  0.2632E+00  0.3493E-01
 -14.792  0.2824E+00  0.3775E-01
 -14.782  0.3028E+00  0.4078E-01
 -14.772  0.3246E+00  0.4403E-01
 -14.762  0.3476E+00  0.4750E-01
 -14.752  0.3721E+00  0.5123E-01
 -14.742  0.3981E+00  0.5521E-01
 -14.732  0.4256E+00  0.5946E-01
 -14.722  0.4548E+00  0.6401E-01
 -14.712  0.4856E+00  0.6887E-01
 -14.702  0.5182E+00  0.7405E-01
 -14.692  0.5527E+00  0.7957E-01
 -14.682  0.5890E+00  0.8546E-01
 -14.672  0.6275E+00  0.9174E-01
 -14.662  0.6680E+00  0.9842E-01
 -14.652  0.7106E+00  0.1055E+00
 -14.642  0.7556E+00  0.1131E+00
 -14.632  0.8029E+00  0.1211E+00
 -14.622  0.8526E+00  0.1296E+00
 -14.612  0.9049E+00  0.1387E+00
 -14.602  0.9598E+00  0.1483E+00
 -14.592  0.1017E+01  0.1585E+00
 -14.582  0.1078E+01  0.1692E+00
 -14.572  0.1141E+01  0.1806E+00
 -14.562  0.1208E+01  0.1927E+00
 -14.552  0.1277E+01  0.2055E+00
 -14.542  0.1350E+01  0.2190E+00
 -14.532  0.1425E+01  0.2332E+00
 -14.522  0.1505E+01  0.2483E+00
 -14.512  0.1587E+01  0.2642E+00
 -14.502  0.1674E+01  0.2809E+00
 -14.492  0.1763E+01  0.2985E+00
 -14.482  0.1857E+01  0.3171E+00
 -14.472  0.1954E+01  0.3366E+00
 -14.462  0.2056E+01  0.3572E+00
 -14.452  0.2161E+01  0.3788E+00
 -14.442  0.2270E+01  0.4015E+00
 -14.432  0.2383E+01  0.4253E+00
 -14.422  0.2501E+01  0.4504E+00
 -14.412  0.2623E+01  0.4766E+00
 -14.402  0.2749E+01  0.5041E+00
 -14.392  0.2879E+01  0.5329E+00
 -14.382  0.3014E+01  0.5630E+00
 -14.372  0.3154E+01  0.5945E+00
 -14.362  0.3297E+01  0.6275E+00
 -14.352  0.3446E+01  0.6620E+00
 -14.342  0.3599E+01  0.6980E+00
 -14.332  0.3757E+01  0.7355E+00
 -14.322  0.3919E+01  0.7747E+00
 -14.312  0.4086E+01  0.8156E+00
 -14.302  0.4257E+01  0.8581E+00
 -14.292  0.4433E+01  0.9025E+00
 -14.282  0.4614E+01  0.9486E+00
 -14.272  0.4799E+01  0.9966E+00
 -14.262  0.4989E+01  0.1046E+01
 -14.252  0.5183E+01  0.1098E+01
 -14.242  0.5382E+01  0.1152E+01
 -14.232  0.5586E+01  0.1208E+01
 -14.222  0.5793E+01  0.1266E+01
 -14.212  0.6005E+01  0.1326E+01
 -14.202  0.6221E+01  0.1388E+01
 -14.192  0.6441E+01  0.1453E+01
 -14.182  0.6666E+01  0.1519E+01
 -14.172  0.6894E+01  0.1588E+01
 -14.162  0.7126E+01  0.1659E+01
 -14.152  0.7361E+01  0.1733E+01
 -14.142  0.7600E+01  0.1809E+01
 -14.132  0.7842E+01  0.1887E+01
 -14.122  0.8087E+01  0.1968E+01
 -14.112  0.8336E+01  0.2052E+01
 -14.102  0.8587E+01  0.2138E+01
 -14.092  0.8840E+01  0.2226E+01
 -14.082  0.9096E+01  0.2317E+01
 -14.072  0.9354E+01  0.2410E+01
 -14.062  0.9614E+01  0.2507E+01
 -14.052  0.9876E+01  0.2605E+01
 -14.042  0.1014E+02  0.2707E+01
 -14.032  0.1040E+02  0.2811E+01
 -14.022  0.1067E+02  0.2918E+01
 -14.012  0.1093E+02  0.3027E+01
 -14.002  0.1120E+02  0.3139E+01
 -13.992  0.1147E+02  0.3254E+01
 -13.982  0.1173E+02  0.3371E+01
 -13.972  0.1200E+02  0.3491E+01
 -13.962  0.1226E+02  0.3614E+01
 -13.952  0.1253E+02  0.3739E+01
 -13.942  0.1279E+02  0.3867E+01
 -13.932  0.1305E+02  0.3997E+01
 -13.922  0.1331E+02  0.4130E+01
 -13.912  0.1357E+02  0.4266E+01
 -13.902  0.1382E+02  0.4404E+01
 -13.892  0.1407E+02  0.4545E+01
 -13.882  0.1432E+02  0.4688E+01
 -13.872  0.1456E+02  0.4834E+01
 -13.862  0.1480E+02  0.4982E+01
 -13.852  0.1504E+02  0.5132E+01
 -13.842  0.1527E+02  0.5285E+01
 -13.832  0.1549E+02  0.5440E+01
 -13.822  0.1571E+02  0.5597E+01
 -13.812  0.1593E+02  0.5756E+01
 -13.802  0.1614E+02  0.5918E+01
 -13.792  0.1634E+02  0.6081E+01
 -13.782  0.1654E+02  0.6246E+01
 -13.772  0.1673E+02  0.6414E+01
 -13.762  0.1691E+02  0.6583E+01
 -13.752  0.1708E+02  0.6754E+01
 -13.742  0.1725E+02  0.6926E+01
 -13.732  0.1741E+02  0.7100E+01
 -13.722  0.1756E+02  0.7276E+01
 -13.712  0.1771E+02  0.7453E+01
 -13.702  0.1784E+02  0.7631E+01
 -13.692  0.1797E+02  0.7811E+01
 -13.682  0.1808E+02  0.7992E+01
 -13.672  0.1819E+02  0.8174E+01
 -13.662  0.1829E+02  0.8357E+01
 -13.652  0.1838E+02  0.8541E+01
 -13.642  0.1846E+02  0.8725E+01
 -13.632  0.1853E+02  0.8910E+01
 -13.622  0.1859E+02  0.9096E+01
 -13.612  0.1864E+02  0.9283E+01
 -13.602  0.1868E+02  0.9470E+01
 -13.592  0.1871E+02  0.9657E+01
 -13.582  0.1873E+02  0.9844E+01
 -13.572  0.1874E+02  0.1003E+02
 -13.562  0.1874E+02  0.1022E+02
 -13.552  0.1873E+02  0.1041E+02
 -13.542  0.1871E+02  0.1059E+02
 -13.532  0.1868E+02  0.1078E+02
 -13.522  0.1863E+02  0.1097E+02
 -13.512  0.1858E+02  0.1115E+02
 -13.502  0.1852E+02  0.1134E+02
 -13.492  0.1845E+02  0.1152E+02
 -13.482  0.1837E+02  0.1171E+02
 -13.472  0.1828E+02  0.1189E+02
 -13.462  0.1818E+02  0.1207E+02
 -13.452  0.1807E+02  0.1225E+02
 -13.442  0.1795E+02  0.1243E+02
 -13.432  0.1782E+02  0.1261E+02
 -13.422  0.1769E+02  0.1279E+02
 -13.412  0.1754E+02  0.1296E+02
 -13.402  0.1739E+02  0.1313E+02
 -13.392  0.1723E+02  0.1331E+02
 -13.382  0.1706E+02  0.1348E+02
 -13.372  0.1688E+02  0.1365E+02
 -13.362  0.1670E+02  0.1381E+02
 -13.352  0.1651E+02  0.1398E+02
 -13.342  0.1631E+02  0.1414E+02
 -13.332  0.1610E+02  0.1430E+02
 -13.322  0.1589E+02  0.1446E+02
 -13.312  0.1568E+02  0.1462E+02
 -13.302  0.1545E+02  0.1477E+02
 -13.292  0.1523E+02  0.1493E+02
 -13.282  0.1499E+02  0.1507E+02
 -13.272  0.1476E+02  0.1522E+02
 -13.262  0.1452E+02  0.1537E+02
 -13.252  0.1427E+02  0.1551E+02
 -13.242  0.1402E+02  0.1565E+02
 -13.232  0.1377E+02  0.1579E+02
 -13.222  0.1351E+02  0.1592E+02
 -13.212  0.1326E+02  0.1606E+02
 -13.202  0.1299E+02  0.1619E+02
 -13.192  0.1273E+02  0.1631E+02
 -13.182  0.1247E+02  0.1644E+02
 -13.172  0.1220E+02  0.1656E+02
 -13.162  0.1194E+02  0.1668E+02
 -13.152  0.1167E+02  0.1680E+02
 -13.142  0.1140E+02  0.1691E+02
 -13.132  0.1113E+02  0.1702E+02
 -13.122  0.1086E+02  0.1713E+02
 -13.112  0.1060E+02  0.1724E+02
 -13.102  0.1033E+02  0.1734E+02
 -13.092  0.1007E+02  0.1744E+02
 -13.082  0.9801E+01  0.1754E+02
 -13.072  0.9538E+01  0.1763E+02
 -13.062  0.9277E+01  0.1773E+02
 -13.052  0.9018E+01  0.1782E+02
 -13.042  0.8761E+01  0.1790E+02
 -13.032  0.8506E+01  0.1799E+02
 -13.022  0.8255E+01  0.1807E+02
 -13.012  0.8006E+01  0.1815E+02
 -13.002  0.7760E+01  0.1823E+02
 -12.992  0.7517E+01  0.1830E+02
 -12.982  0.7278E+01  0.1838E+02
 -12.972  0.7042E+01  0.1845E+02
 -12.962  0.6810E+01  0.1852E+02
 -12.952  0.6582E+01  0.1858E+02
 -12.942  0.6358E+01  0.1864E+02
 -12.932  0.6138E+01  0.1871E+02
 -12.922  0.5922E+01  0.1877E+02
 -12.912  0.5710E+01  0.1882E+02
 -12.902  0.5503E+01  0.1888E+02
 -12.892  0.5300E+01  0.1893E+02
 -12.882  0.5102E+01  0.1898E+02
 -12.872  0.4908E+01  0.1903E+02
 -12.862  0.4719E+01  0.1908E+02
 -12.852  0.4534E+01  0.1912E+02
 -12.842  0.4354E+01  0.1917E+02
 -12.832  0.4179E+01  0.1921E+02
 -12.822  0.4008E+01  0.1925E+02
 -12.812  0.3842E+01  0.1929E+02
 -12.802  0.3681E+01  0.1932E+02
 -12.792  0.3525E+01  0.1936E+02
 -12.782  0.3373E+01  0.1939E+02
 -12.772  0.3226E+01  0.1943E+02
 -12.762  0.3083E+01  0.1946E+02
 -12.752  0.2945E+01  0.1949E+02
 -12.742  0.2811E+01  0.1951E+02
 -12.732  0.2682E+01  0.1954E+02
 -12.722  0.2558E+01  0.1957E+02
 -12.712  0.2437E+01  0.1959E+02
 -12.702  0.2321E+01  0.1961E+02
 -12.692  0.2209E+01  0.1964E+02
 -12.682  0.2101E+01  0.1966E+02
 -12.672  0.1998E+01  0.1968E+02
 -12.662  0.1898E+01  0.1970E+02
 -12.652  0.1802E+01  0.1971E+02
 -12.642  0.1710E+01  0.1973E+02
 -12.632  0.1622E+01  0.1975E+02
 -12.622  0.1537E+01  0.1976E+02
 -12.612  0.1456E+01  0.1978E+02
 -12.602  0.1378E+01  0.1979E+02
 -12.592  0.1304E+01  0.1980E+02
 -12.582  0.1233E+01  0.1982E+02
 -12.572  0.1165E+01  0.1983E+02
 -12.562  0.1100E+01  0.1984E+02
 -12.552  0.1038E+01  0.1985E+02
 -12.542  0.9794E+00  0.1986E+02
 -12.532  0.9232E+00  0.1987E+02
 -12.522  0.8697E+00  0.1988E+02
 -12.512  0.8188E+00  0.1988E+02
 -12.502  0.7704E+00  0.1989E+02
 -12.492  0.7244E+00  0.1990E+02
 -12.482  0.6808E+00  0.1991E+02
 -12.472  0.6393E+00  0.1991E+02
 -12.462  0.6001E+00  0.1992E+02
 -12.452  0.5629E+00  0.1992E+02
 -12.442  0.5277E+00  0.1993E+02
 -12.432  0.4943E+00  0.1993E+02
 -12.422  0.4628E+00  0.1994E+02
 -12.412  0.4331E+00  0.1994E+02
 -12.402  0.4050E+00  0.1995E+02
 -12.392  0.3785E+00  0.1995E+02
 -12.382  0.3535E+00  0.1996E+02
 -12.372  0.3299E+00  0.1996E+02
 -12.362  0.3077E+00  0.1996E+02
 -12.352  0.2869E+00  0.1996E+02
 -12.342  0.2673E+00  0.1997E+02
 -12.332  0.2488E+00  0.1997E+02
 -12.322  0.2315E+00  0.1997E+02
 -12.312  0.2153E+00  0.1997E+02
 -12.302  0.2001E+00  0.1998E+02
 -12.292  0.1858E+00  0.1998E+02
 -12.282  0.1725E+00  0.1998E+02
 -12.272  0.1600E+00  0.1998E+02
 -12.262  0.1483E+00  0.1998E+02
 -12.252  0.1374E+00  0.1998E+02
 -12.242  0.1272E+00  0.1999E+02
 -12.232  0.1177E+00  0.1999E+02
 -12.222  0.1088E+00  0.1999E+02
 -12.212  0.1006E+00  0.1999E+02
 -12.202  0.9287E-01  0.1999E+02
 -12.192  0.8571E-01  0.1999E+02
 -12.182  0.7905E-01  0.1999E+02
 -12.172  0.7287E-01  0.1999E+02
 -12.162  0.6712E-01  0.1999E+02
 -12.152  0.6179E-01  0.1999E+02
 -12.142  0.5685E-01  0.1999E+02
 -12.132  0.5227E-01  0.1999E+02
 -12.122  0.4803E-01  0.1999E+02
 -12.112  0.4410E-01  0.2000E+02
 -12.102  0.4047E-01  0.2000E+02
 -12.092  0.3711E-01  0.2000E+02
 -12.082  0.3401E-01  0.2000E+02
 -12.072  0.3116E-01  0.2000E+02
 -12.062  0.2852E-01  0.2000E+02
 -12.052  0.2609E-01  0.2000E+02
 -12.042  0.2385E-01  0.2000E+02
 -12.032  0.2179E-01  0.2000E+02
 -12.022  0.1989E-01  0.2000E+02
 -12.012  0.1815E-01  0.2000E+02
 -12.002  0.1655E-01  0.2000E+02
 -11.992  0.1508E-01  0.2000E+02
 -11.982  0.1373E-01  0.2000E+02
 -11.972  0.1250E-01  0.2000E+02
 -11.962  0.1137E-01  0.2000E+02
 -11.952  0.1033E-01  0.2000E+02
 -11.942  0.9386E-02  0.2000E+02
 -11.932  0.8521E-02  0.2000E+02
 -11.922  0.7730E-02  0.2000E+02
 -11.912  0.7008E-02  0.2000E+02
 -11.902  0.6349E-02  0.2000E+02
 -11.892  0.5749E-02  0.2000E+02
 -11.882  0.5202E-02  0.2000E+02
 -11.872  0.4704E-02  0.2000E+02
 -11.862  0.4251E-02  0.2000E+02
 -11.852  0.3839E-02  0.2000E+02
 -11.842  0.3465E-02  0.2000E+02
 -11.832  0.3125E-02  0.2000E+02
 -11.822  0.2817E-02  0.2000E+02
 -11.812  0.2537E-02  0.2000E+02
 -11.802  0.2284E-02  0.2000E+02
 -11.792  0.2055E-02  0.2000E+02
 -11.782  0.1847E-02  0.2000E+02
 -11.772  0.1660E-02  0.2000E+02
 -11.762  0.1490E-02  0.2000E+02
 -11.752  0.1337E-02  0.2000E+02
 -11.742  0.1199E-02  0.2000E+02
 -11.732  0.1075E-02  0.2000E+02
 -11.722  0.9624E-03  0.2000E+02
 -11.712  0.8613E-03  0.2000E+02
 -11.702  0.7704E-03  0.2000E+02
 -11.692  0.6886E-03  0.2000E+02
 -11.682  0.6150E-03  0.2000E+02
 -11.672  0.5490E-03  0.2000E+02
 -11.662  0.4898E-03  0.2000E+02
 -11.652  0.4366E-03  0.2000E+02
 -11.642  0.3890E-03  0.2000E+02
 -11.632  0.3463E-03  0.2000E+02
 -11.622  0.3082E-03  0.2000E+02
 -11.612  0.2740E-03  0.2000E+02
 -11.602  0.2435E-03  0.2000E+02
 -11.592  0.2162E-03  0.2000E+02
 -11.582  0.1919E-03  0.2000E+02
 -11.572  0.1702E-03  0.2000E+02
 -11.562  0.1508E-03  0.2000E+02
 -11.552  0.1336E-03  0.2000E+02
 -11.542  0.1182E-03  0.2000E+02
 -11.532  0.1046E-03  0.2000E+02
 -11.522  0.9245E-04  0.2000E+02
 -11.512  0.8167E-04  0.2000E+02
 -11.502  0.7210E-04  0.2000E+02
 -11.492  0.6361E-04  0.2000E+02
 -11.482  0.5608E-04  0.2000E+02
 -11.472  0.4941E-04  0.2000E+02
 -11.462  0.4351E-04  0.2000E+02
 -11.452  0.3829E-04  0.2000E+02
 -11.442  0.3367E-04  0.2000E+02
 -11.432  0.2959E-04  0.2000E+02
 -11.422  0.2598E-04  0.2000E+02
 -11.412  0.2280E-04  0.2000E+02
 -11.402  0.2000E-04  0.2000E+02
 -11.392  0.1753E-04  0.2000E+02
 -11.382  0.1535E-04  0.2000E+02
 -11.372  0.1344E-04  0.2000E+02
 -11.362  0.1176E-04  0.2000E+02
 -11.352  0.1028E-04  0.2000E+02
 -11.342  0.8978E-05  0.2000E+02
 -11.332  0.7839E-05  0.2000E+02
 -11.322  0.6839E-05  0.2000E+02
 -11.312  0.5963E-05  0.2000E+02
 -11.302  0.5195E-05  0.2000E+02
 -11.292  0.4524E-05  0.2000E+02
 -11.282  0.3937E-05  0.2000E+02
 -11.272  0.3423E-05  0.2000E+02
 -11.262  0.2975E-05  0.2000E+02
 -11.252  0.2584E-05  0.2000E+02
 -11.242  0.2242E-05  0.2000E+02
 -11.232  0.1945E-05  0.2000E+02
 -11.222  0.1686E-05  0.2000E+02
 -11.212  0.1460E-05  0.2000E+02
 -11.202  0.1264E-05  0.2000E+02
 -11.192  0.1093E-05  0.2000E+02
 -11.182  0.9450E-06  0.2000E+02
 -11.172  0.8164E-06  0.2000E+02
 -11.162  0.7048E-06  0.2000E+02
 -11.152  0.6081E-06  0.2000E+02
 -11.142  0.5243E-06  0.2000E+02
 -11.132  0.4517E-06  0.2000E+02
 -11.122  0.3889E-06  0.2000E+02
 -11.112  0.3347E-06  0.2000E+02
 -11.102  0.2878E-06  0.2000E+02
 -11.092  0.2473E-06  0.2000E+02
 -11.082  0.2124E-06  0.2000E+02
 -11.072  0.1823E-06  0.2000E+02
 -11.062  0.1563E-06  0.2000E+02
 -11.052  0.1340E-06  0.2000E+02
 -11.042  0.1147E-06  0.2000E+02
 -11.032  0.9821E-07  0.2000E+02
 -11.022  0.8401E-07  0.2000E+02
 -11.012  0.7181E-07  0.2000E+02
 -11.002  0.6134E-07  0.2000E+02
 -10.992  0.5237E-07  0.2000E+02
 -10.982  0.4468E-07  0.2000E+02
 -10.972  0.3809E-07  0.2000E+02
 -10.962  0.3245E-07  0.2000E+02
 -10.952  0.2763E-07  0.2000E+02
 -10.942  0.2351E-07  0.2000E+02
 -10.932  0.1999E-07  0.2000E+02
 -10.922  0.1698E-07  0.2000E+02
 -10.912  0.1442E-07  0.2000E+02
 -10.902  0.1224E-07  0.2000E+02
 -10.892  0.1038E-07  0.2000E+02
 -10.882  0.8796E-08  0.2000E+02
 -10.872  0.7449E-08  0.2000E+02
 -10.862  0.6305E-08  0.2000E+02
 -10.852  0.5332E-08  0.2000E+02
 -10.842  0.4507E-08  0.2000E+02
 -10.832  0.3807E-08  0.2000E+02
 -10.822  0.3213E-08  0.2000E+02
 -10.812  0.2711E-08  0.2000E+02
 -10.802  0.2285E-08  0.2000E+02
 -10.792  0.1925E-08  0.2000E+02
 -10.782  0.1621E-08  0.2000E+02
 -10.772  0.1363E-08  0.2000E+02
 -10.762  0.1146E-08  0.2000E+02
 -10.752  0.9631E-09  0.2000E+02
 -10.742  0.8086E-09  0.2000E+02
 -10.732  0.6785E-09  0.2000E+02
 -10.722  0.5689E-09  0.2000E+02
 -10.712  0.4767E-09  0.2000E+02
 -10.702  0.3992E-09  0.2000E+02
 -10.692  0.3341E-09  0.2000E+02
 -10.682  0.2794E-09  0.2000E+02
 -10.672  0.2335E-09  0.2000E+02
 -10.662  0.1950E-09  0.2000E+02
 -10.652  0.1628E-09  0.2000E+02
 -10.642  0.1358E-09  0.2000E+02
 -10.632  0.1131E-09  0.2000E+02
 -10.622  0.9425E-10  0.2000E+02
 -10.612  0.7845E-10  0.2000E+02
 -10.602  0.6526E-10  0.2000E+02
 -10.592  0.5425E-10  0.2000E+02
 -10.582  0.4507E-10  0.2000E+02
 -10.572  0.3741E-10  0.2000E+02
 -10.562  0.3104E-10  0.2000E+02
 -10.552  0.2573E-10  0.2000E+02
 -10.542  0.2132E-10  0.2000E+02
 -10.532  0.1765E-10  0.2000E+02
 -10.522  0.1461E-10  0.2000E+02
 -10.512  0.1208E-10  0.2000E+02
 -10.502  0.9981E-11  0.2000E+02
 -10.492  0.8242E-11  0.2000E+02
 -10.482  0.6801E-11  0.2000E+02
 -10.472  0.5609E-11  0.2000E+02
 -10.462  0.4622E-11  0.2000E+02
 -10.452  0.3807E-11  0.2000E+02
 -10.442  0.3133E-11  0.2000E+02
 -10.432  0.2577E-11  0.2000E+02
 -10.422  0.2118E-11  0.2000E+02
 -10.412  0.1740E-11  0.2000E+02
 -10.402  0.1428E-11  0.2000E+02
 -10.392  0.1171E-11  0.2000E+02
 -10.382  0.9602E-12  0.2000E+02
 -10.372  0.7866E-12  0.2000E+02
 -10.362  0.6439E-12  0.2000E+02
 -10.352  0.5268E-12  0.2000E+02
 -10.342  0.4307E-12  0.2000E+02
 -10.332  0.3518E-12  0.2000E+02
 -10.322  0.2873E-12  0.2000E+02
 -10.312  0.2344E-12  0.2000E+02
 -10.302  0.1911E-12  0.2000E+02
 -10.292  0.1557E-12  0.2000E+02
 -10.282  0.1268E-12  0.2000E+02
 -10.272  0.1032E-12  0.2000E+02
 -10.262  0.8391E-13  0.2000E+02
 -10.252  0.6819E-13  0.2000E+02
 -10.242  0.5537E-13  0.2000E+02
 -10.232  0.4494E-13  0.2000E+02
 -10.222  0.3645E-13  0.2000E+02
 -10.212  0.2954E-13  0.2000E+02
 -10.202  0.2392E-13  0.2000E+02
 -10.192  0.1936E-13  0.2000E+02
 -10.182  0.1566E-13  0.2000E+02
 -10.172  0.1266E-13  0.2000E+02
 -10.162  0.1023E-13  0.2000E+02
 -10.152  0.8255E-14  0.2000E+02
 -10.142  0.6659E-14  0.2000E+02
 -10.132  0.5369E-14  0.2000E+02
 -10.122  0.4325E-14  0.2000E+02
 -10.112  0.3482E-14  0.2000E+02
 -10.102  0.2801E-14  0.2000E+02
 -10.092  0.2252E-14  0.2000E+02
 -10.082  0.1810E-14  0.2000E+02
 -10.072  0.1453E-14  0.2000E+02
 -10.062  0.1166E-14  0.2000E+02
 -10.052  0.9348E-15  0.2000E+02
 -10.042  0.7491E-15  0.2000E+02
 -10.032  0.5999E-15  0.2000E+02
 -10.022  0.4800E-15  0.2000E+02
 -10.012  0.3839E-15  0.2000E+02
 -10.002  0.3068E-15  0.2000E+02
  -9.992  0.2450E-15  0.2000E+02
  -9.982  0.1955E-15  0.2000E+02
  -9.972  0.1560E-15  0.2000E+02
  -9.962  0.1243E-15  0.2000E+02
  -9.952  0.9901E-16  0.2000E+02
  -9.942  0.7881E-16  0.2000E+02
  -9.932  0.6268E-16  0.2000E+02
  -9.922  0.4983E-16  0.2000E+02
  -9.912  0.3958E-16  0.2000E+02
  -9.902  0.3142E-16  0.2000E+02
  -9.892  0.2493E-16  0.2000E+02
  -9.882  0.1976E-16  0.2000E+02
  -9.872  0.1566E-16  0.2000E+02
  -9.862  0.1239E-16  0.2000E+02
  -9.852  0.9806E-17  0.2000E+02
  -9.842  0.7753E-17  0.2000E+02
  -9.832  0.6126E-17  0.2000E+02
  -9.822  0.4837E-17  0.2000E+02
  -9.812  0.3817E-17  0.2000E+02
  -9.802  0.3010E-17  0.2000E+02
  -9.792  0.2372E-17  0.2000E+02
  -9.782  0.1868E-17  0.2000E+02
  -9.772  0.1470E-17  0.2000E+02
  -9.762  0.1156E-17  0.2000E+02
  -9.752  0.9084E-18  0.2000E+02
  -9.742  0.7134E-18  0.2000E+02
  -9.732  0.5599E-18  0.2000E+02
  -9.722  0.4391E-18  0.2000E+02
  -9.712  0.3442E-18  0.2000E+02
  -9.702  0.2696E-18  0.2000E+02
  -9.692  0.2110E-18  0.2000E+02
  -9.682  0.1651E-18  0.2000E+02
  -9.672  0.1290E-18  0.2000E+02
  -9.662  0.1008E-18  0.2000E+02
  -9.652  0.7868E-19  0.2000E+02
  -9.642  0.6138E-19  0.2000E+02
  -9.632  0.4785E-19  0.2000E+02
  -9.622  0.3728E-19  0.2000E+02
  -9.612  0.2903E-19  0.2000E+02
  -9.602  0.2258E-19  0.2000E+02
  -9.592  0.1756E-19  0.2000E+02
  -9.582  0.1364E-19  0.2000E+02
  -9.572  0.1059E-19  0.2000E+02
  -9.562  0.8219E-20  0.2000E+02
  -9.552  0.6373E-20  0.2000E+02
  -9.542  0.4939E-20  0.2000E+02
  -9.532  0.3825E-20  0.2000E+02
  -9.522  0.2960E-20  0.2000E+02
  -9.512  0.2289E-20  0.2000E+02
  -9.502  0.1769E-20  0.2000E+02
  -9.492  0.1366E-20  0.2000E+02
  -9.482  0.1054E-20  0.2000E+02
  -9.472  0.8132E-21  0.2000E+02
  -9.462  0.6268E-21  0.2000E+02
  -9.452  0.4828E-21  0.2000E+02
  -9.442  0.3716E-21  0.2000E+02
  -9.432  0.2858E-21  0.2000E+02
  -9.422  0.2197E-21  0.2000E+02
  -9.412  0.1688E-21  0.2000E+02
  -9.402  0.1296E-21  0.2000E+02
  -9.392  0.9939E-22  0.2000E+02
  -9.382  0.7619E-22  0.2000E+02
  -9.372  0.5837E-22  0.2000E+02
  -9.362  0.4469E-22  0.2000E+02
  -9.352  0.3419E-22  0.2000E+02
  -9.342  0.2614E-22  0.2000E+02
  -9.332  0.1997E-22  0.2000E+02
  -9.322  0.1525E-22  0.2000E+02
  -9.312  0.1164E-22  0.2000E+02
  -9.302  0.8873E-23  0.2000E+02
  -9.292  0.6761E-23  0.2000E+02
  -9.282  0.5149E-23  0.2000E+02
  -9.272  0.3918E-23  0.2000E+02
  -9.262  0.2980E-23  0.2000E+02
  -9.252  0.2264E-23  0.2000E+02
  -9.242  0.1720E-23  0.2000E+02
  -9.232  0.1305E-23  0.2000E+02
  -9.222  0.9898E-24  0.2000E+02
  -9.212  0.7502E-24  0.2000E+02
  -9.202  0.5682E-24  0.2000E+02
  -9.192  0.4301E-24  0.2000E+02
  -9.182  0.3253E-24  0.2000E+02
  -9.172  0.2459E-24  0.2000E+02
  -9.162  0.1857E-24  0.2000E+02
  -9.152  0.1402E-24  0.2000E+02
  -9.142  0.1058E-24  0.2000E+02
  -9.132  0.7974E-25  0.2000E+02
  -9.122  0.6007E-25  0.2000E+02
  -9.112  0.4522E-25  0.2000E+02
  -9.102  0.3402E-25  0.2000E+02
  -9.092  0.2558E-25  0.2000E+02
  -9.082  0.1922E-25  0.2000E+02
  -9.072  0.1443E-25  0.2000E+02
  -9.062  0.1083E-25  0.2000E+02
  -9.052  0.8118E-26  0.2000E+02
  -9.042  0.6083E-26  0.2000E+02
  -9.032  0.4555E-26  0.2000E+02
  -9.022  0.3408E-26  0.2000E+02
  -9.012  0.2549E-26  0.2000E+02
  -9.002  0.1905E-26  0.2000E+02
  -8.992  0.1422E-26  0.2000E+02
  -8.982  0.1062E-26  0.2000E+02
  -8.972  0.7917E-27  0.2000E+02
  -8.962  0.5900E-27  0.2000E+02
  -8.952  0.4395E-27  0.2000E+02
  -8.942  0.3271E-27  0.2000E+02
  -8.932  0.2433E-27  0.2000E+02
  -8.922  0.1808E-27  0.2000E+02
  -8.912  0.1343E-27  0.2000E+02
  -8.902  0.9970E-28  0.2000E+02
  -8.892  0.7396E-28  0.2000E+02
  -8.882  0.5482E-28  0.2000E+02
  -8.872  0.4061E-28  0.2000E+02
  -8.862  0.3007E-28  0.2000E+02
  -8.852  0.2224E-28  0.2000E+02
  -8.842  0.1644E-28  0.2000E+02
  -8.832  0.1215E-28  0.2000E+02
  -8.822  0.8969E-29  0.2000E+02
  -8.812  0.6618E-29  0.2000E+02
  -8.802  0.4879E-29  0.2000E+02
  -8.792  0.3595E-29  0.2000E+02
  -8.782  0.2647E-29  0.2000E+02
  -8.772  0.1948E-29  0.2000E+02
  -8.762  0.1432E-29  0.2000E+02
  -8.752  0.1053E-29  0.2000E+02
  -8.742  0.7729E-30  0.2000E+02
  -8.732  0.5672E-30  0.2000E+02
  -8.722  0.4160E-30  0.2000E+02
  -8.712  0.3048E-30  0.2000E+02
  -8.702  0.2233E-30  0.2000E+02
  -8.692  0.1634E-30  0.2000E+02
  -8.682  0.1195E-30  0.2000E+02
  -8.672  0.8735E-31  0.2000E+02
  -8.662  0.6380E-31  0.2000E+02
  -8.652  0.4657E-31  0.2000E+02
  -8.642  0.3397E-31  0.2000E+02
  -8.632  0.2476E-31  0.2000E+02
  -8.622  0.1804E-31  0.2000E+02
  -8.612  0.1313E-31  0.2000E+02
  -8.602  0.9551E-32  0.2000E+02
  -8.592  0.6943E-32  0.2000E+02
  -8.582  0.5044E-32  0.2000E+02
  -8.572  0.3662E-32  0.2000E+02
  -8.562  0.2657E-32  0.2000E+02
  -8.552  0.1926E-32  0.2000E+02
  -8.542  0.1396E-32  0.2000E+02
  -8.532  0.1010E-32  0.2000E+02
  -8.522  0.7311E-33  0.2000E+02
  -8.512  0.5286E-33  0.2000E+02
  -8.502  0.3820E-33  0.2000E+02
  -8.492  0.2758E-33  0.2000E+02
  -8.482  0.1990E-33  0.2000E+02
  -8.472  0.1435E-33  0.2000E+02
  -8.462  0.1034E-33  0.2000E+02
  -8.452  0.7449E-34  0.2000E+02
  -8.442  0.5361E-34  0.2000E+02
  -8.432  0.3855E-34  0.2000E+02
  -8.422  0.2771E-34  0.2000E+02
  -8.412  0.1990E-34  0.2000E+02
  -8.402  0.1428E-34  0.2000E+02
  -8.392  0.1024E-34  0.2000E+02
  -8.382  0.7343E-35  0.2000E+02
  -8.372  0.5260E-35  0.2000E+02
  -8.362  0.3765E-35  0.2000E+02
  -8.352  0.2693E-35  0.2000E+02
  -8.342  0.1925E-35  0.2000E+02
  -8.332  0.1375E-35  0.2000E+02
  -8.322  0.9818E-36  0.2000E+02
  -8.312  0.7004E-36  0.2000E+02
  -8.302  0.4993E-36  0.2000E+02
  -8.292  0.3557E-36  0.2000E+02
  -8.282  0.2533E-36  0.2000E+02
  -8.272  0.1802E-36  0.2000E+02
  -8.262  0.1281E-36  0.2000E+02
  -8.252  0.9103E-37  0.2000E+02
  -8.242  0.6464E-37  0.2000E+02
  -8.232  0.4586E-37  0.2000E+02
  -8.222  0.3252E-37  0.2000E+02
  -8.212  0.2304E-37  0.2000E+02
  -8.202  0.1632E-37  0.2000E+02
  -8.192  0.1155E-37  0.2000E+02
  -8.182  0.8167E-38  0.2000E+02
  -8.172  0.5771E-38  0.2000E+02
  -8.162  0.4076E-38  0.2000E+02
  -8.152  0.2877E-38  0.2000E+02
  -8.142  0.2029E-38  0.2000E+02
  -8.132  0.1430E-38  0.2000E+02
  -8.122  0.1007E-38  0.2000E+02
  -8.112  0.7089E-39  0.2000E+02
  -8.102  0.4986E-39  0.2000E+02
  -8.092  0.3505E-39  0.2000E+02
  -8.082  0.2462E-39  0.2000E+02
  -8.072  0.1728E-39  0.2000E+02
  -8.062  0.1212E-39  0.2000E+02
  -8.052  0.8499E-40  0.2000E+02
  -8.042  0.5955E-40  0.2000E+02
  -8.032  0.4170E-40  0.2000E+02
  -8.022  0.2918E-40  0.2000E+02
  -8.012  0.2042E-40  0.2000E+02
  -8.002  0.1430E-40  0.2000E+02
  -7.992  0.1002E-40  0.2000E+02
  -7.982  0.7049E-41  0.2000E+02
  -7.972  0.4997E-41  0.2000E+02
  -7.962  0.3598E-41  0.2000E+02
  -7.952  0.2671E-41  0.2000E+02
  -7.942  0.2096E-41  0.2000E+02
  -7.932  0.1794E-41  0.2000E+02
  -7.922  0.1727E-41  0.2000E+02
  -7.912  0.1882E-41  0.2000E+02
  -7.902  0.2277E-41  0.2000E+02
  -7.892  0.2959E-41  0.2000E+02
  -7.882  0.4009E-41  0.2000E+02
  -7.872  0.5556E-41  0.2000E+02
  -7.862  0.7785E-41  0.2000E+02
  -7.852  0.1097E-40  0.2000E+02
  -7.842  0.1549E-40  0.2000E+02
  -7.832  0.2188E-40  0.2000E+02
  -7.822  0.3092E-40  0.2000E+02
  -7.812  0.4369E-40  0.2000E+02
  -7.802  0.6168E-40  0.2000E+02
  -7.792  0.8704E-40  0.2000E+02
  -7.782  0.1228E-39  0.2000E+02
  -7.772  0.1730E-39  0.2000E+02
  -7.762  0.2437E-39  0.2000E+02
  -7.752  0.3429E-39  0.2000E+02
  -7.742  0.4824E-39  0.2000E+02
  -7.732  0.6780E-39  0.2000E+02
  -7.722  0.9524E-39  0.2000E+02
  -7.712  0.1337E-38  0.2000E+02
  -7.702  0.1875E-38  0.2000E+02
  -7.692  0.2629E-38  0.2000E+02
  -7.682  0.3683E-38  0.2000E+02
  -7.672  0.5156E-38  0.2000E+02
  -7.662  0.7213E-38  0.2000E+02
  -7.652  0.1008E-37  0.2000E+02
  -7.642  0.1409E-37  0.2000E+02
  -7.632  0.1967E-37  0.2000E+02
  -7.622  0.2745E-37  0.2000E+02
  -7.612  0.3827E-37  0.2000E+02
  -7.602  0.5333E-37  0.2000E+02
  -7.592  0.7427E-37  0.2000E+02
  -7.582  0.1033E-36  0.2000E+02
  -7.572  0.1437E-36  0.2000E+02
  -7.562  0.1997E-36  0.2000E+02
  -7.552  0.2774E-36  0.2000E+02
  -7.542  0.3850E-36  0.2000E+02
  -7.532  0.5339E-36  0.2000E+02
  -7.522  0.7400E-36  0.2000E+02
  -7.512  0.1025E-35  0.2000E+02
  -7.502  0.1419E-35  0.2000E+02
  -7.492  0.1962E-35  0.2000E+02
  -7.482  0.2712E-35  0.2000E+02
  -7.472  0.3747E-35  0.2000E+02
  -7.462  0.5172E-35  0.2000E+02
  -7.452  0.7135E-35  0.2000E+02
  -7.442  0.9837E-35  0.2000E+02
  -7.432  0.1355E-34  0.2000E+02
  -7.422  0.1866E-34  0.2000E+02
  -7.412  0.2567E-34  0.2000E+02
  -7.402  0.3530E-34  0.2000E+02
  -7.392  0.4850E-34  0.2000E+02
  -7.382  0.6659E-34  0.2000E+02
  -7.372  0.9137E-34  0.2000E+02
  -7.362  0.1253E-33  0.2000E+02
  -7.352  0.1717E-33  0.2000E+02
  -7.342  0.2351E-33  0.2000E+02
  -7.332  0.3218E-33  0.2000E+02
  -7.322  0.4400E-33  0.2000E+02
  -7.312  0.6014E-33  0.2000E+02
  -7.302  0.8214E-33  0.2000E+02
  -7.292  0.1121E-32  0.2000E+02
  -7.282  0.1529E-32  0.2000E+02
  -7.272  0.2084E-32  0.2000E+02
  -7.262  0.2839E-32  0.2000E+02
  -7.252  0.3864E-32  0.2000E+02
  -7.242  0.5257E-32  0.2000E+02
  -7.232  0.7146E-32  0.2000E+02
  -7.222  0.9707E-32  0.2000E+02
  -7.212  0.1318E-31  0.2000E+02
  -7.202  0.1788E-31  0.2000E+02
  -7.192  0.2424E-31  0.2000E+02
  -7.182  0.3284E-31  0.2000E+02
  -7.172  0.4447E-31  0.2000E+02
  -7.162  0.6016E-31  0.2000E+02
  -7.152  0.8135E-31  0.2000E+02
  -7.142  0.1099E-30  0.2000E+02
  -7.132  0.1484E-30  0.2000E+02
  -7.122  0.2003E-30  0.2000E+02
  -7.112  0.2701E-30  0.2000E+02
  -7.102  0.3640E-30  0.2000E+02
  -7.092  0.4903E-30  0.2000E+02
  -7.082  0.6598E-30  0.2000E+02
  -7.072  0.8874E-30  0.2000E+02
  -7.062  0.1193E-29  0.2000E+02
  -7.052  0.1602E-29  0.2000E+02
  -7.042  0.2150E-29  0.2000E+02
  -7.032  0.2884E-29  0.2000E+02
  -7.022  0.3866E-29  0.2000E+02
  -7.012  0.5179E-29  0.2000E+02
  -7.002  0.6933E-29  0.2000E+02
  -6.992  0.9276E-29  0.2000E+02
  -6.982  0.1240E-28  0.2000E+02
  -6.972  0.1657E-28  0.2000E+02
  -6.962  0.2212E-28  0.2000E+02
  -6.952  0.2951E-28  0.2000E+02
  -6.942  0.3935E-28  0.2000E+02
  -6.932  0.5243E-28  0.2000E+02
  -6.922  0.6981E-28  0.2000E+02
  -6.912  0.9290E-28  0.2000E+02
  -6.902  0.1235E-27  0.2000E+02
  -6.892  0.1642E-27  0.2000E+02
  -6.882  0.2180E-27  0.2000E+02
  -6.872  0.2893E-27  0.2000E+02
  -6.862  0.3837E-27  0.2000E+02
  -6.852  0.5086E-27  0.2000E+02
  -6.842  0.6736E-27  0.2000E+02
  -6.832  0.8915E-27  0.2000E+02
  -6.822  0.1179E-26  0.2000E+02
  -6.812  0.1559E-26  0.2000E+02
  -6.802  0.2059E-26  0.2000E+02
  -6.792  0.2718E-26  0.2000E+02
  -6.782  0.3586E-26  0.2000E+02
  -6.772  0.4727E-26  0.2000E+02
  -6.762  0.6227E-26  0.2000E+02
  -6.752  0.8198E-26  0.2000E+02
  -6.742  0.1079E-25  0.2000E+02
  -6.732  0.1418E-25  0.2000E+02
  -6.722  0.1863E-25  0.2000E+02
  -6.712  0.2447E-25  0.2000E+02
  -6.702  0.3211E-25  0.2000E+02
  -6.692  0.4210E-25  0.2000E+02
  -6.682  0.5517E-25  0.2000E+02
  -6.672  0.7225E-25  0.2000E+02
  -6.662  0.9455E-25  0.2000E+02
  -6.652  0.1236E-24  0.2000E+02
  -6.642  0.1616E-24  0.2000E+02
  -6.632  0.2111E-24  0.2000E+02
  -6.622  0.2755E-24  0.2000E+02
  -6.612  0.3593E-24  0.2000E+02
  -6.602  0.4683E-24  0.2000E+02
  -6.592  0.6101E-24  0.2000E+02
  -6.582  0.7941E-24  0.2000E+02
  -6.572  0.1033E-23  0.2000E+02
  -6.562  0.1343E-23  0.2000E+02
  -6.552  0.1745E-23  0.2000E+02
  -6.542  0.2265E-23  0.2000E+02
  -6.532  0.2939E-23  0.2000E+02
  -6.522  0.3810E-23  0.2000E+02
  -6.512  0.4937E-23  0.2000E+02
  -6.502  0.6392E-23  0.2000E+02
  -6.492  0.8271E-23  0.2000E+02
  -6.482  0.1070E-22  0.2000E+02
  -6.472  0.1382E-22  0.2000E+02
  -6.462  0.1785E-22  0.2000E+02
  -6.452  0.2303E-22  0.2000E+02
  -6.442  0.2970E-22  0.2000E+02
  -6.432  0.3828E-22  0.2000E+02
  -6.422  0.4931E-22  0.2000E+02
  -6.412  0.6346E-22  0.2000E+02
  -6.402  0.8163E-22  0.2000E+02
  -6.392  0.1049E-21  0.2000E+02
  -6.382  0.1348E-21  0.2000E+02
  -6.372  0.1730E-21  0.2000E+02
  -6.362  0.2219E-21  0.2000E+02
  -6.352  0.2845E-21  0.2000E+02
  -6.342  0.3645E-21  0.2000E+02
  -6.332  0.4666E-21  0.2000E+02
  -6.322  0.5970E-21  0.2000E+02
  -6.312  0.7633E-21  0.2000E+02
  -6.302  0.9753E-21  0.2000E+02
  -6.292  0.1245E-20  0.2000E+02
  -6.282  0.1589E-20  0.2000E+02
  -6.272  0.2026E-20  0.2000E+02
  -6.262  0.2582E-20  0.2000E+02
  -6.252  0.3288E-20  0.2000E+02
  -6.242  0.4185E-20  0.2000E+02
  -6.232  0.5322E-20  0.2000E+02
  -6.222  0.6764E-20  0.2000E+02
  -6.212  0.8591E-20  0.2000E+02
  -6.202  0.1090E-19  0.2000E+02
  -6.192  0.1383E-19  0.2000E+02
  -6.182  0.1753E-19  0.2000E+02
  -6.172  0.2221E-19  0.2000E+02
  -6.162  0.2811E-19  0.2000E+02
  -6.152  0.3557E-19  0.2000E+02
  -6.142  0.4496E-19  0.2000E+02
  -6.132  0.5681E-19  0.2000E+02
  -6.122  0.7172E-19  0.2000E+02
  -6.112  0.9049E-19  0.2000E+02
  -6.102  0.1141E-18  0.2000E+02
  -6.092  0.1438E-18  0.2000E+02
  -6.082  0.1810E-18  0.2000E+02
  -6.072  0.2278E-18  0.2000E+02
  -6.062  0.2865E-18  0.2000E+02
  -6.052  0.3600E-18  0.2000E+02
  -6.042  0.4521E-18  0.2000E+02
  -6.032  0.5674E-18  0.2000E+02
  -6.022  0.7116E-18  0.2000E+02
  -6.012  0.8919E-18  0.2000E+02
  -6.002  0.1117E-17  0.2000E+02
  -5.992  0.1398E-17  0.2000E+02
  -5.982  0.1749E-17  0.2000E+02
  -5.972  0.2187E-17  0.2000E+02
  -5.962  0.2731E-17  0.2000E+02
  -5.952  0.3410E-17  0.2000E+02
  -5.942  0.4254E-17  0.2000E+02
  -5.932  0.5304E-17  0.2000E+02
  -5.922  0.6608E-17  0.2000E+02
  -5.912  0.8228E-17  0.2000E+02
  -5.902  0.1024E-16  0.2000E+02
  -5.892  0.1273E-16  0.2000E+02
  -5.882  0.1582E-16  0.2000E+02
  -5.872  0.1964E-16  0.2000E+02
  -5.862  0.2438E-16  0.2000E+02
  -5.852  0.3023E-16  0.2000E+02
  -5.842  0.3747E-16  0.2000E+02
  -5.832  0.4640E-16  0.2000E+02
  -5.822  0.5744E-16  0.2000E+02
  -5.812  0.7104E-16  0.2000E+02
  -5.802  0.8781E-16  0.2000E+02
  -5.792  0.1085E-15  0.2000E+02
  -5.782  0.1339E-15  0.2000E+02
  -5.772  0.1652E-15  0.2000E+02
  -5.762  0.2036E-15  0.2000E+02
  -5.752  0.2509E-15  0.2000E+02
  -5.742  0.3089E-15  0.2000E+02
  -5.732  0.3800E-15  0.2000E+02
  -5.722  0.4673E-15  0.2000E+02
  -5.712  0.5742E-15  0.2000E+02
  -5.702  0.7050E-15  0.2000E+02
  -5.692  0.8652E-15  0.2000E+02
  -5.682  0.1061E-14  0.2000E+02
  -5.672  0.1300E-14  0.2000E+02
  -5.662  0.1592E-14  0.2000E+02
  -5.652  0.1949E-14  0.2000E+02
  -5.642  0.2384E-14  0.2000E+02
  -5.632  0.2913E-14  0.2000E+02
  -5.622  0.3559E-14  0.2000E+02
  -5.612  0.4344E-14  0.2000E+02
  -5.602  0.5299E-14  0.2000E+02
  -5.592  0.6460E-14  0.2000E+02
  -5.582  0.7870E-14  0.2000E+02
  -5.572  0.9581E-14  0.2000E+02
  -5.562  0.1166E-13  0.2000E+02
  -5.552  0.1417E-13  0.2000E+02
  -5.542  0.1722E-13  0.2000E+02
  -5.532  0.2091E-13  0.2000E+02
  -5.522  0.2537E-13  0.2000E+02
  -5.512  0.3077E-13  0.2000E+02
  -5.502  0.3729E-13  0.2000E+02
  -5.492  0.4516E-13  0.2000E+02
  -5.482  0.5465E-13  0.2000E+02
  -5.472  0.6610E-13  0.2000E+02
  -5.462  0.7990E-13  0.2000E+02
  -5.452  0.9651E-13  0.2000E+02
  -5.442  0.1165E-12  0.2000E+02
  -5.432  0.1405E-12  0.2000E+02
  -5.422  0.1694E-12  0.2000E+02
  -5.412  0.2041E-12  0.2000E+02
  -5.402  0.2457E-12  0.2000E+02
  -5.392  0.2956E-12  0.2000E+02
  -5.382  0.3554E-12  0.2000E+02
  -5.372  0.4270E-12  0.2000E+02
  -5.362  0.5128E-12  0.2000E+02
  -5.352  0.6153E-12  0.2000E+02
  -5.342  0.7379E-12  0.2000E+02
  -5.332  0.8843E-12  0.2000E+02
  -5.322  0.1059E-11  0.2000E+02
  -5.312  0.1267E-11  0.2000E+02
  -5.302  0.1516E-11  0.2000E+02
  -5.292  0.1812E-11  0.2000E+02
  -5.282  0.2164E-11  0.2000E+02
  -5.272  0.2584E-11  0.2000E+02
  -5.262  0.3082E-11  0.2000E+02
  -5.252  0.3674E-11  0.2000E+02
  -5.242  0.4377E-11  0.2000E+02
  -5.232  0.5211E-11  0.2000E+02
  -5.222  0.6200E-11  0.2000E+02
  -5.212  0.7372E-11  0.2000E+02
  -5.202  0.8760E-11  0.2000E+02
  -5.192  0.1040E-10  0.2000E+02
  -5.182  0.1234E-10  0.2000E+02
  -5.172  0.1464E-10  0.2000E+02
  -5.162  0.1735E-10  0.2000E+02
  -5.152  0.2055E-10  0.2000E+02
  -5.142  0.2432E-10  0.2000E+02
  -5.132  0.2877E-10  0.2000E+02
  -5.122  0.3400E-10  0.2000E+02
  -5.112  0.4017E-10  0.2000E+02
  -5.102  0.4742E-10  0.2000E+02
  -5.092  0.5594E-10  0.2000E+02
  -5.082  0.6595E-10  0.2000E+02
  -5.072  0.7770E-10  0.2000E+02
  -5.062  0.9149E-10  0.2000E+02
  -5.052  0.1076E-09  0.2000E+02
  -5.042  0.1266E-09  0.2000E+02
  -5.032  0.1488E-09  0.2000E+02
  -5.022  0.1747E-09  0.2000E+02
  -5.012  0.2050E-09  0.2000E+02
  -5.002  0.2404E-09  0.2000E+02
  -4.992  0.2818E-09  0.2000E+02
  -4.982  0.3301E-09  0.2000E+02
  -4.972  0.3864E-09  0.2000E+02
  -4.962  0.4520E-09  0.2000E+02
  -4.952  0.5284E-09  0.2000E+02
  -4.942  0.6173E-09  0.2000E+02
  -4.932  0.7207E-09  0.2000E+02
  -4.922  0.8409E-09  0.2000E+02
  -4.912  0.9805E-09  0.2000E+02
  -4.902  0.1142E-08  0.2000E+02
  -4.892  0.1330E-08  0.2000E+02
  -4.882  0.1548E-08  0.2000E+02
  -4.872  0.1801E-08  0.2000E+02
  -4.862  0.2093E-08  0.2000E+02
  -4.852  0.2430E-08  0.2000E+02
  -4.842  0.2821E-08  0.2000E+02
  -4.832  0.3272E-08  0.2000E+02
  -4.822  0.3793E-08  0.2000E+02
  -4.812  0.4394E-08  0.2000E+02
  -4.802  0.5087E-08  0.2000E+02
  -4.792  0.5886E-08  0.2000E+02
  -4.782  0.6806E-08  0.2000E+02
  -4.772  0.7864E-08  0.2000E+02
  -4.762  0.9080E-08  0.2000E+02
  -4.752  0.1048E-07  0.2000E+02
  -4.742  0.1208E-07  0.2000E+02
  -4.732  0.1393E-07  0.2000E+02
  -4.722  0.1604E-07  0.2000E+02
  -4.712  0.1846E-07  0.2000E+02
  -4.702  0.2124E-07  0.2000E+02
  -4.692  0.2441E-07  0.2000E+02
  -4.682  0.2804E-07  0.2000E+02
  -4.672  0.3219E-07  0.2000E+02
  -4.662  0.3694E-07  0.2000E+02
  -4.652  0.4235E-07  0.2000E+02
  -4.642  0.4853E-07  0.2000E+02
  -4.632  0.5557E-07  0.2000E+02
  -4.622  0.6359E-07  0.2000E+02
  -4.612  0.7272E-07  0.2000E+02
  -4.602  0.8311E-07  0.2000E+02
  -4.592  0.9493E-07  0.2000E+02
  -4.582  0.1084E-06  0.2000E+02
  -4.572  0.1236E-06  0.2000E+02
  -4.562  0.1409E-06  0.2000E+02
  -4.552  0.1605E-06  0.2000E+02
  -4.542  0.1827E-06  0.2000E+02
  -4.532  0.2079E-06  0.2000E+02
  -4.522  0.2364E-06  0.2000E+02
  -4.512  0.2687E-06  0.2000E+02
  -4.502  0.3051E-06  0.2000E+02
  -4.492  0.3462E-06  0.2000E+02
  -4.482  0.3927E-06  0.2000E+02
  -4.472  0.4451E-06  0.2000E+02
  -4.462  0.5041E-06  0.2000E+02
  -4.452  0.5707E-06  0.2000E+02
  -4.442  0.6456E-06  0.2000E+02
  -4.432  0.7298E-06  0.2000E+02
  -4.422  0.8246E-06  0.2000E+02
  -4.412  0.9310E-06  0.2000E+02
  -4.402  0.1051E-05  0.2000E+02
  -4.392  0.1185E-05  0.2000E+02
  -4.382  0.1335E-05  0.2000E+02
  -4.372  0.1504E-05  0.2000E+02
  -4.362  0.1692E-05  0.2000E+02
  -4.352  0.1904E-05  0.2000E+02
  -4.342  0.2140E-05  0.2000E+02
  -4.332  0.2404E-05  0.2000E+02
  -4.322  0.2699E-05  0.2000E+02
  -4.312  0.3028E-05  0.2000E+02
  -4.302  0.3395E-05  0.2000E+02
  -4.292  0.3804E-05  0.2000E+02
  -4.282  0.4260E-05  0.2000E+02
  -4.272  0.4768E-05  0.2000E+02
  -4.262  0.5333E-05  0.2000E+02
  -4.252  0.5961E-05  0.2000E+02
  -4.242  0.6658E-05  0.2000E+02
  -4.232  0.7433E-05  0.2000E+02
  -4.222  0.8292E-05  0.2000E+02
  -4.212  0.9245E-05  0.2000E+02
  -4.202  0.1030E-04  0.2000E+02
  -4.192  0.1147E-04  0.2000E+02
  -4.182  0.1276E-04  0.2000E+02
  -4.172  0.1420E-04  0.2000E+02
  -4.162  0.1578E-04  0.2000E+02
  -4.152  0.1753E-04  0.2000E+02
  -4.142  0.1945E-04  0.2000E+02
  -4.132  0.2158E-04  0.2000E+02
  -4.122  0.2393E-04  0.2000E+02
  -4.112  0.2651E-04  0.2000E+02
  -4.102  0.2936E-04  0.2000E+02
  -4.092  0.3249E-04  0.2000E+02
  -4.082  0.3593E-04  0.2000E+02
  -4.072  0.3971E-04  0.2000E+02
  -4.062  0.4386E-04  0.2000E+02
  -4.052  0.4841E-04  0.2000E+02
  -4.042  0.5341E-04  0.2000E+02
  -4.032  0.5888E-04  0.2000E+02
  -4.022  0.6488E-04  0.2000E+02
  -4.012  0.7144E-04  0.2000E+02
  -4.002  0.7862E-04  0.2000E+02
  -3.992  0.8646E-04  0.2000E+02
  -3.982  0.9503E-04  0.2000E+02
  -3.972  0.1044E-03  0.2000E+02
  -3.962  0.1146E-03  0.2000E+02
  -3.952  0.1257E-03  0.2000E+02
  -3.942  0.1378E-03  0.2000E+02
  -3.932  0.1510E-03  0.2000E+02
  -3.922  0.1654E-03  0.2000E+02
  -3.912  0.1810E-03  0.2000E+02
  -3.902  0.1980E-03  0.2000E+02
  -3.892  0.2164E-03  0.2000E+02
  -3.882  0.2364E-03  0.2000E+02
  -3.872  0.2581E-03  0.2000E+02
  -3.862  0.2816E-03  0.2000E+02
  -3.852  0.3070E-03  0.2000E+02
  -3.842  0.3346E-03  0.2000E+02
  -3.832  0.3644E-03  0.2000E+02
  -3.822  0.3966E-03  0.2000E+02
  -3.812  0.4314E-03  0.2000E+02
  -3.802  0.4690E-03  0.2000E+02
  -3.792  0.5096E-03  0.2000E+02
  -3.782  0.5533E-03  0.2000E+02
  -3.772  0.6005E-03  0.2000E+02
  -3.762  0.6512E-03  0.2000E+02
  -3.752  0.7058E-03  0.2000E+02
  -3.742  0.7646E-03  0.2000E+02
  -3.732  0.8277E-03  0.2000E+02
  -3.722  0.8955E-03  0.2000E+02
  -3.712  0.9683E-03  0.2000E+02
  -3.702  0.1046E-02  0.2000E+02
  -3.692  0.1130E-02  0.2000E+02
  -3.682  0.1220E-02  0.2000E+02
  -3.672  0.1316E-02  0.2000E+02
  -3.662  0.1419E-02  0.2000E+02
  -3.652  0.1529E-02  0.2000E+02
  -3.642  0.1646E-02  0.2000E+02
  -3.632  0.1771E-02  0.2000E+02
  -3.622  0.1905E-02  0.2000E+02
  -3.612  0.2048E-02  0.2000E+02
  -3.602  0.2200E-02  0.2000E+02
  -3.592  0.2362E-02  0.2000E+02
  -3.582  0.2535E-02  0.2000E+02
  -3.572  0.2719E-02  0.2000E+02
  -3.562  0.2914E-02  0.2000E+02
  -3.552  0.3121E-02  0.2000E+02
  -3.542  0.3342E-02  0.2000E+02
  -3.532  0.3575E-02  0.2000E+02
  -3.522  0.3823E-02  0.2000E+02
  -3.512  0.4086E-02  0.2000E+02
  -3.502  0.4365E-02  0.2000E+02
  -3.492  0.4659E-02  0.2000E+02
  -3.482  0.4971E-02  0.2000E+02
  -3.472  0.5301E-02  0.2000E+02
  -3.462  0.5649E-02  0.2000E+02
  -3.452  0.6017E-02  0.2000E+02
  -3.442  0.6405E-02  0.2000E+02
  -3.432  0.6814E-02  0.2000E+02
  -3.422  0.7246E-02  0.2000E+02
  -3.412  0.7700E-02  0.2000E+02
  -3.402  0.8178E-02  0.2000E+02
  -3.392  0.8682E-02  0.2000E+02
  -3.382  0.9211E-02  0.2000E+02
  -3.372  0.9767E-02  0.2000E+02
  -3.362  0.1035E-01  0.2000E+02
  -3.352  0.1096E-01  0.2000E+02
  -3.342  0.1161E-01  0.2000E+02
  -3.332  0.1228E-01  0.2000E+02
  -3.322  0.1298E-01  0.2000E+02
  -3.312  0.1372E-01  0.2000E+02
  -3.302  0.1450E-01  0.2000E+02
  -3.292  0.1530E-01  0.2000E+02
  -3.282  0.1615E-01  0.2000E+02
  -3.272  0.1703E-01  0.2000E+02
  -3.262  0.1795E-01  0.2000E+02
  -3.252  0.1891E-01  0.2000E+02
  -3.242  0.1991E-01  0.2000E+02
  -3.232  0.2095E-01  0.2000E+02
  -3.222  0.2204E-01  0.2000E+02
  -3.212  0.2317E-01  0.2000E+02
  -3.202  0.2434E-01  0.2000E+02
  -3.192  0.2556E-01  0.2000E+02
  -3.182  0.2683E-01  0.2000E+02
  -3.172  0.2814E-01  0.2001E+02
  -3.162  0.2951E-01  0.2001E+02
  -3.152  0.3093E-01  0.2001E+02
  -3.142  0.3239E-01  0.2001E+02
  -3.132  0.3391E-01  0.2001E+02
  -3.122  0.3549E-01  0.2001E+02
  -3.112  0.3711E-01  0.2001E+02
  -3.102  0.3879E-01  0.2001E+02
  -3.092  0.4053E-01  0.2001E+02
  -3.082  0.4233E-01  0.2001E+02
  -3.072  0.4418E-01  0.2001E+02
  -3.062  0.4609E-01  0.2001E+02
  -3.052  0.4806E-01  0.2001E+02
  -3.042  0.5009E-01  0.2001E+02
  -3.032  0.5218E-01  0.2001E+02
  -3.022  0.5433E-01  0.2001E+02
  -3.012  0.5655E-01  0.2001E+02
  -3.002  0.5882E-01  0.2001E+02
  -2.992  0.6116E-01  0.2001E+02
  -2.982  0.6356E-01  0.2001E+02
  -2.972  0.6602E-01  0.2001E+02
  -2.962  0.6855E-01  0.2002E+02
  -2.952  0.7114E-01  0.2002E+02
  -2.942  0.7379E-01  0.2002E+02
  -2.932  0.7651E-01  0.2002E+02
  -2.922  0.7929E-01  0.2002E+02
  -2.912  0.8214E-01  0.2002E+02
  -2.902  0.8505E-01  0.2002E+02
  -2.892  0.8802E-01  0.2002E+02
  -2.882  0.9106E-01  0.2002E+02
  -2.872  0.9416E-01  0.2002E+02
  -2.862  0.9733E-01  0.2002E+02
  -2.852  0.1006E+00  0.2002E+02
  -2.842  0.1038E+00  0.2003E+02
  -2.832  0.1072E+00  0.2003E+02
  -2.822  0.1106E+00  0.2003E+02
  -2.812  0.1141E+00  0.2003E+02
  -2.802  0.1176E+00  0.2003E+02
  -2.792  0.1212E+00  0.2003E+02
  -2.782  0.1249E+00  0.2003E+02
  -2.772  0.1286E+00  0.2003E+02
  -2.762  0.1323E+00  0.2004E+02
  -2.752  0.1361E+00  0.2004E+02
  -2.742  0.1400E+00  0.2004E+02
  -2.732  0.1440E+00  0.2004E+02
  -2.722  0.1479E+00  0.2004E+02
  -2.712  0.1520E+00  0.2004E+02
  -2.702  0.1561E+00  0.2004E+02
  -2.692  0.1602E+00  0.2005E+02
  -2.682  0.1644E+00  0.2005E+02
  -2.672  0.1686E+00  0.2005E+02
  -2.662  0.1729E+00  0.2005E+02
  -2.652  0.1772E+00  0.2005E+02
  -2.642  0.1815E+00  0.2005E+02
  -2.632  0.1859E+00  0.2006E+02
  -2.622  0.1904E+00  0.2006E+02
  -2.612  0.1949E+00  0.2006E+02
  -2.602  0.1994E+00  0.2006E+02
  -2.592  0.2039E+00  0.2006E+02
  -2.582  0.2085E+00  0.2007E+02
  -2.572  0.2131E+00  0.2007E+02
  -2.562  0.2178E+00  0.2007E+02
  -2.552  0.2225E+00  0.2007E+02
  -2.542  0.2272E+00  0.2007E+02
  -2.532  0.2319E+00  0.2008E+02
  -2.522  0.2367E+00  0.2008E+02
  -2.512  0.2415E+00  0.2008E+02
  -2.502  0.2463E+00  0.2008E+02
  -2.492  0.2511E+00  0.2009E+02
  -2.482  0.2559E+00  0.2009E+02
  -2.472  0.2608E+00  0.2009E+02
  -2.462  0.2657E+00  0.2009E+02
  -2.452  0.2706E+00  0.2010E+02
  -2.442  0.2755E+00  0.2010E+02
  -2.432  0.2804E+00  0.2010E+02
  -2.422  0.2854E+00  0.2011E+02
  -2.412  0.2903E+00  0.2011E+02
  -2.402  0.2953E+00  0.2011E+02
  -2.392  0.3003E+00  0.2011E+02
  -2.382  0.3053E+00  0.2012E+02
  -2.372  0.3102E+00  0.2012E+02
  -2.362  0.3152E+00  0.2012E+02
  -2.352  0.3202E+00  0.2013E+02
  -2.342  0.3252E+00  0.2013E+02
  -2.332  0.3302E+00  0.2013E+02
  -2.322  0.3352E+00  0.2014E+02
  -2.312  0.3403E+00  0.2014E+02
  -2.302  0.3453E+00  0.2014E+02
  -2.292  0.3503E+00  0.2015E+02
  -2.282  0.3553E+00  0.2015E+02
  -2.272  0.3603E+00  0.2015E+02
  -2.262  0.3653E+00  0.2016E+02
  -2.252  0.3703E+00  0.2016E+02
  -2.242  0.3753E+00  0.2017E+02
  -2.232  0.3804E+00  0.2017E+02
  -2.222  0.3854E+00  0.2017E+02
  -2.212  0.3904E+00  0.2018E+02
  -2.202  0.3954E+00  0.2018E+02
  -2.192  0.4004E+00  0.2019E+02
  -2.182  0.4054E+00  0.2019E+02
  -2.172  0.4104E+00  0.2019E+02
  -2.162  0.4154E+00  0.2020E+02
  -2.152  0.4204E+00  0.2020E+02
  -2.142  0.4254E+00  0.2021E+02
  -2.132  0.4303E+00  0.2021E+02
  -2.122  0.4353E+00  0.2021E+02
  -2.112  0.4403E+00  0.2022E+02
  -2.102  0.4453E+00  0.2022E+02
  -2.092  0.4503E+00  0.2023E+02
  -2.082  0.4553E+00  0.2023E+02
  -2.072  0.4603E+00  0.2024E+02
  -2.062  0.4652E+00  0.2024E+02
  -2.052  0.4702E+00  0.2025E+02
  -2.042  0.4752E+00  0.2025E+02
  -2.032  0.4802E+00  0.2026E+02
  -2.022  0.4852E+00  0.2026E+02
  -2.012  0.4902E+00  0.2027E+02
  -2.002  0.4952E+00  0.2027E+02
  -1.992  0.5002E+00  0.2028E+02
  -1.982  0.5052E+00  0.2028E+02
  -1.972  0.5103E+00  0.2029E+02
  -1.962  0.5153E+00  0.2029E+02
  -1.952  0.5203E+00  0.2030E+02
  -1.942  0.5253E+00  0.2030E+02
  -1.932  0.5304E+00  0.2031E+02
  -1.922  0.5354E+00  0.2031E+02
  -1.912  0.5405E+00  0.2032E+02
  -1.902  0.5456E+00  0.2032E+02
  -1.892  0.5507E+00  0.2033E+02
  -1.882  0.5558E+00  0.2033E+02
  -1.872  0.5609E+00  0.2034E+02
  -1.862  0.5660E+00  0.2035E+02
  -1.852  0.5711E+00  0.2035E+02
  -1.842  0.5763E+00  0.2036E+02
  -1.832  0.5814E+00  0.2036E+02
  -1.822  0.5866E+00  0.2037E+02
  -1.812  0.5918E+00  0.2037E+02
  -1.802  0.5970E+00  0.2038E+02
  -1.792  0.6022E+00  0.2039E+02
  -1.782  0.6074E+00  0.2039E+02
  -1.772  0.6127E+00  0.2040E+02
  -1.762  0.6179E+00  0.2040E+02
  -1.752  0.6232E+00  0.2041E+02
  -1.742  0.6285E+00  0.2042E+02
  -1.732  0.6338E+00  0.2042E+02
  -1.722  0.6391E+00  0.2043E+02
  -1.712  0.6444E+00  0.2044E+02
  -1.702  0.6498E+00  0.2044E+02
  -1.692  0.6551E+00  0.2045E+02
  -1.682  0.6605E+00  0.2046E+02
  -1.672  0.6659E+00  0.2046E+02
  -1.662  0.6713E+00  0.2047E+02
  -1.652  0.6767E+00  0.2048E+02
  -1.642  0.6821E+00  0.2048E+02
  -1.632  0.6875E+00  0.2049E+02
  -1.622  0.6929E+00  0.2050E+02
  -1.612  0.6984E+00  0.2050E+02
  -1.602  0.7038E+00  0.2051E+02
  -1.592  0.7093E+00  0.2052E+02
  -1.582  0.7147E+00  0.2053E+02
  -1.572  0.7202E+00  0.2053E+02
  -1.562  0.7256E+00  0.2054E+02
  -1.552  0.7311E+00  0.2055E+02
  -1.542  0.7365E+00  0.2055E+02
  -1.532  0.7420E+00  0.2056E+02
  -1.522  0.7474E+00  0.2057E+02
  -1.512  0.7528E+00  0.2058E+02
  -1.502  0.7582E+00  0.2058E+02
  -1.492  0.7636E+00  0.2059E+02
  -1.482  0.7690E+00  0.2060E+02
  -1.472  0.7744E+00  0.2061E+02
  -1.462  0.7797E+00  0.2062E+02
  -1.452  0.7851E+00  0.2062E+02
  -1.442  0.7904E+00  0.2063E+02
  -1.432  0.7956E+00  0.2064E+02
  -1.422  0.8009E+00  0.2065E+02
  -1.412  0.8061E+00  0.2065E+02
  -1.402  0.8113E+00  0.2066E+02
  -1.392  0.8164E+00  0.2067E+02
  -1.382  0.8215E+00  0.2068E+02
  -1.372  0.8265E+00  0.2069E+02
  -1.362  0.8315E+00  0.2070E+02
  -1.352  0.8365E+00  0.2070E+02
  -1.342  0.8414E+00  0.2071E+02
  -1.332  0.8462E+00  0.2072E+02
  -1.322  0.8510E+00  0.2073E+02
  -1.312  0.8557E+00  0.2074E+02
  -1.302  0.8603E+00  0.2075E+02
  -1.292  0.8649E+00  0.2076E+02
  -1.282  0.8694E+00  0.2076E+02
  -1.272  0.8738E+00  0.2077E+02
  -1.262  0.8781E+00  0.2078E+02
  -1.252  0.8824E+00  0.2079E+02
  -1.242  0.8865E+00  0.2080E+02
  -1.232  0.8906E+00  0.2081E+02
  -1.222  0.8946E+00  0.2082E+02
  -1.212  0.8984E+00  0.2083E+02
  -1.202  0.9022E+00  0.2084E+02
  -1.192  0.9059E+00  0.2084E+02
  -1.182  0.9095E+00  0.2085E+02
  -1.172  0.9129E+00  0.2086E+02
  -1.162  0.9163E+00  0.2087E+02
  -1.152  0.9195E+00  0.2088E+02
  -1.142  0.9227E+00  0.2089E+02
  -1.132  0.9256E+00  0.2090E+02
  -1.122  0.9285E+00  0.2091E+02
  -1.112  0.9313E+00  0.2092E+02
  -1.102  0.9339E+00  0.2093E+02
  -1.092  0.9364E+00  0.2094E+02
  -1.082  0.9388E+00  0.2095E+02
  -1.072  0.9410E+00  0.2096E+02
  -1.062  0.9431E+00  0.2096E+02
  -1.052  0.9450E+00  0.2097E+02
  -1.042  0.9468E+00  0.2098E+02
  -1.032  0.9485E+00  0.2099E+02
  -1.022  0.9500E+00  0.2100E+02
  -1.012  0.9514E+00  0.2101E+02
  -1.002  0.9527E+00  0.2102E+02
  -0.992  0.9537E+00  0.2103E+02
  -0.982  0.9547E+00  0.2104E+02
  -0.972  0.9555E+00  0.2105E+02
  -0.962  0.9561E+00  0.2106E+02
  -0.952  0.9566E+00  0.2107E+02
  -0.942  0.9570E+00  0.2108E+02
  -0.932  0.9571E+00  0.2109E+02
  -0.922  0.9572E+00  0.2110E+02
  -0.912  0.9571E+00  0.2111E+02
  -0.902  0.9568E+00  0.2112E+02
  -0.892  0.9564E+00  0.2113E+02
  -0.882  0.9558E+00  0.2114E+02
  -0.872  0.9551E+00  0.2115E+02
  -0.862  0.9542E+00  0.2116E+02
  -0.852  0.9532E+00  0.2117E+02
  -0.842  0.9520E+00  0.2117E+02
  -0.832  0.9507E+00  0.2118E+02
  -0.822  0.9493E+00  0.2119E+02
  -0.812  0.9477E+00  0.2120E+02
  -0.802  0.9459E+00  0.2121E+02
  -0.792  0.9440E+00  0.2122E+02
  -0.782  0.9419E+00  0.2123E+02
  -0.772  0.9398E+00  0.2124E+02
  -0.762  0.9374E+00  0.2125E+02
  -0.752  0.9350E+00  0.2126E+02
  -0.742  0.9324E+00  0.2127E+02
  -0.732  0.9296E+00  0.2128E+02
  -0.722  0.9268E+00  0.2129E+02
  -0.712  0.9238E+00  0.2130E+02
  -0.702  0.9206E+00  0.2131E+02
  -0.692  0.9174E+00  0.2132E+02
  -0.682  0.9140E+00  0.2132E+02
  -0.672  0.9105E+00  0.2133E+02
  -0.662  0.9069E+00  0.2134E+02
  -0.652  0.9031E+00  0.2135E+02
  -0.642  0.8993E+00  0.2136E+02
  -0.632  0.8953E+00  0.2137E+02
  -0.622  0.8912E+00  0.2138E+02
  -0.612  0.8870E+00  0.2139E+02
  -0.602  0.8827E+00  0.2140E+02
  -0.592  0.8783E+00  0.2140E+02
  -0.582  0.8738E+00  0.2141E+02
  -0.572  0.8692E+00  0.2142E+02
  -0.562  0.8644E+00  0.2143E+02
  -0.552  0.8596E+00  0.2144E+02
  -0.542  0.8547E+00  0.2145E+02
  -0.532  0.8497E+00  0.2146E+02
  -0.522  0.8447E+00  0.2147E+02
  -0.512  0.8395E+00  0.2147E+02
  -0.502  0.8342E+00  0.2148E+02
  -0.492  0.8289E+00  0.2149E+02
  -0.482  0.8235E+00  0.2150E+02
  -0.472  0.8180E+00  0.2151E+02
  -0.462  0.8125E+00  0.2151E+02
  -0.452  0.8068E+00  0.2152E+02
  -0.442  0.8011E+00  0.2153E+02
  -0.432  0.7954E+00  0.2154E+02
  -0.422  0.7896E+00  0.2155E+02
  -0.412  0.7837E+00  0.2155E+02
  -0.402  0.7777E+00  0.2156E+02
  -0.392  0.7717E+00  0.2157E+02
  -0.382  0.7657E+00  0.2158E+02
  -0.372  0.7596E+00  0.2159E+02
  -0.362  0.7534E+00  0.2159E+02
  -0.352  0.7472E+00  0.2160E+02
  -0.342  0.7410E+00  0.2161E+02
  -0.332  0.7347E+00  0.2161E+02
  -0.322  0.7284E+00  0.2162E+02
  -0.312  0.7221E+00  0.2163E+02
  -0.302  0.7157E+00  0.2164E+02
  -0.292  0.7093E+00  0.2164E+02
  -0.282  0.7028E+00  0.2165E+02
  -0.272  0.6964E+00  0.2166E+02
  -0.262  0.6899E+00  0.2166E+02
  -0.252  0.6834E+00  0.2167E+02
  -0.242  0.6768E+00  0.2168E+02
  -0.232  0.6703E+00  0.2168E+02
  -0.222  0.6638E+00  0.2169E+02
  -0.212  0.6572E+00  0.2170E+02
  -0.202  0.6507E+00  0.2170E+02
  -0.192  0.6441E+00  0.2171E+02
  -0.182  0.6376E+00  0.2172E+02
  -0.172  0.6310E+00  0.2172E+02
  -0.162  0.6245E+00  0.2173E+02
  -0.152  0.6179E+00  0.2174E+02
  -0.142  0.6114E+00  0.2174E+02
  -0.132  0.6049E+00  0.2175E+02
  -0.122  0.5984E+00  0.2175E+02
  -0.112  0.5920E+00  0.2176E+02
  -0.102  0.5855E+00  0.2177E+02
  -0.092  0.5791E+00  0.2177E+02
  -0.082  0.5728E+00  0.2178E+02
  -0.072  0.5664E+00  0.2178E+02
  -0.062  0.5601E+00  0.2179E+02
  -0.052  0.5539E+00  0.2179E+02
  -0.042  0.5477E+00  0.2180E+02
  -0.032  0.5416E+00  0.2181E+02
  -0.022  0.5355E+00  0.2181E+02
  -0.012  0.5294E+00  0.2182E+02
  -0.002  0.5235E+00  0.2182E+02
   0.008  0.5175E+00  0.2183E+02
   0.018  0.5117E+00  0.2183E+02
   0.028  0.5059E+00  0.2184E+02
   0.038  0.5003E+00  0.2184E+02
   0.048  0.4947E+00  0.2185E+02
   0.058  0.4891E+00  0.2185E+02
   0.068  0.4837E+00  0.2186E+02
   0.078  0.4784E+00  0.2186E+02
   0.088  0.4731E+00  0.2187E+02
   0.098  0.4680E+00  0.2187E+02
   0.108  0.4629E+00  0.2187E+02
   0.118  0.4580E+00  0.2188E+02
   0.128  0.4531E+00  0.2188E+02
   0.138  0.4484E+00  0.2189E+02
   0.148  0.4438E+00  0.2189E+02
   0.158  0.4393E+00  0.2190E+02
   0.168  0.4350E+00  0.2190E+02
   0.178  0.4307E+00  0.2191E+02
   0.188  0.4266E+00  0.2191E+02
   0.198  0.4227E+00  0.2191E+02
   0.208  0.4188E+00  0.2192E+02
   0.218  0.4152E+00  0.2192E+02
   0.228  0.4116E+00  0.2193E+02
   0.238  0.4082E+00  0.2193E+02
   0.248  0.4050E+00  0.2194E+02
   0.258  0.4019E+00  0.2194E+02
   0.268  0.3989E+00  0.2194E+02
   0.278  0.3961E+00  0.2195E+02
   0.288  0.3935E+00  0.2195E+02
   0.298  0.3910E+00  0.2195E+02
   0.308  0.3887E+00  0.2196E+02
   0.318  0.3866E+00  0.2196E+02
   0.328  0.3846E+00  0.2197E+02
   0.338  0.3828E+00  0.2197E+02
   0.348  0.3811E+00  0.2197E+02
   0.358  0.3797E+00  0.2198E+02
   0.368  0.3784E+00  0.2198E+02
   0.378  0.3773E+00  0.2199E+02
   0.388  0.3763E+00  0.2199E+02
   0.398  0.3756E+00  0.2199E+02
   0.408  0.3750E+00  0.2200E+02
   0.418  0.3746E+00  0.2200E+02
   0.428  0.3743E+00  0.2200E+02
   0.438  0.3743E+00  0.2201E+02
   0.448  0.3744E+00  0.2201E+02
   0.458  0.3747E+00  0.2202E+02
   0.468  0.3752E+00  0.2202E+02
   0.478  0.3758E+00  0.2202E+02
   0.488  0.3767E+00  0.2203E+02
   0.498  0.3777E+00  0.2203E+02
   0.508  0.3789E+00  0.2203E+02
   0.518  0.3803E+00  0.2204E+02
   0.528  0.3818E+00  0.2204E+02
   0.538  0.3835E+00  0.2205E+02
   0.548  0.3854E+00  0.2205E+02
   0.558  0.3875E+00  0.2205E+02
   0.568  0.3897E+00  0.2206E+02
   0.578  0.3921E+00  0.2206E+02
   0.588  0.3947E+00  0.2207E+02
   0.598  0.3974E+00  0.2207E+02
   0.608  0.4003E+00  0.2207E+02
   0.618  0.4034E+00  0.2208E+02
   0.628  0.4066E+00  0.2208E+02
   0.638  0.4100E+00  0.2209E+02
   0.648  0.4135E+00  0.2209E+02
   0.658  0.4172E+00  0.2209E+02
   0.668  0.4210E+00  0.2210E+02
   0.678  0.4250E+00  0.2210E+02
   0.688  0.4291E+00  0.2211E+02
   0.698  0.4334E+00  0.2211E+02
   0.708  0.4377E+00  0.2212E+02
   0.718  0.4423E+00  0.2212E+02
   0.728  0.4469E+00  0.2212E+02
   0.738  0.4517E+00  0.2213E+02
   0.748  0.4566E+00  0.2213E+02
   0.758  0.4617E+00  0.2214E+02
   0.768  0.4668E+00  0.2214E+02
   0.778  0.4721E+00  0.2215E+02
   0.788  0.4774E+00  0.2215E+02
   0.798  0.4829E+00  0.2216E+02
   0.808  0.4885E+00  0.2216E+02
   0.818  0.4942E+00  0.2217E+02
   0.828  0.4999E+00  0.2217E+02
   0.838  0.5058E+00  0.2218E+02
   0.848  0.5118E+00  0.2218E+02
   0.858  0.5178E+00  0.2219E+02
   0.868  0.5239E+00  0.2219E+02
   0.878  0.5301E+00  0.2220E+02
   0.888  0.5364E+00  0.2220E+02
   0.898  0.5427E+00  0.2221E+02
   0.908  0.5491E+00  0.2221E+02
   0.918  0.5556E+00  0.2222E+02
   0.928  0.5621E+00  0.2223E+02
   0.938  0.5686E+00  0.2223E+02
   0.948  0.5752E+00  0.2224E+02
   0.958  0.5819E+00  0.2224E+02
   0.968  0.5886E+00  0.2225E+02
   0.978  0.5953E+00  0.2225E+02
   0.988  0.6020E+00  0.2226E+02
   0.998  0.6088E+00  0.2227E+02
   1.008  0.6156E+00  0.2227E+02
   1.018  0.6224E+00  0.2228E+02
   1.028  0.6292E+00  0.2228E+02
   1.038  0.6360E+00  0.2229E+02
   1.048  0.6428E+00  0.2230E+02
   1.058  0.6496E+00  0.2230E+02
   1.068  0.6564E+00  0.2231E+02
   1.078  0.6632E+00  0.2232E+02
   1.088  0.6700E+00  0.2232E+02
   1.098  0.6767E+00  0.2233E+02
   1.108  0.6834E+00  0.2234E+02
   1.118  0.6901E+00  0.2234E+02
   1.128  0.6967E+00  0.2235E+02
   1.138  0.7033E+00  0.2236E+02
   1.148  0.7098E+00  0.2237E+02
   1.158  0.7163E+00  0.2237E+02
   1.168  0.7227E+00  0.2238E+02
   1.178  0.7291E+00  0.2239E+02
   1.188  0.7354E+00  0.2239E+02
   1.198  0.7416E+00  0.2240E+02
   1.208  0.7477E+00  0.2241E+02
   1.218  0.7538E+00  0.2242E+02
   1.228  0.7597E+00  0.2242E+02
   1.238  0.7656E+00  0.2243E+02
   1.248  0.7713E+00  0.2244E+02
   1.258  0.7770E+00  0.2245E+02
   1.268  0.7825E+00  0.2246E+02
   1.278  0.7879E+00  0.2246E+02
   1.288  0.7932E+00  0.2247E+02
   1.298  0.7984E+00  0.2248E+02
   1.308  0.8035E+00  0.2249E+02
   1.318  0.8084E+00  0.2250E+02
   1.328  0.8131E+00  0.2250E+02
   1.338  0.8178E+00  0.2251E+02
   1.348  0.8223E+00  0.2252E+02
   1.358  0.8266E+00  0.2253E+02
   1.368  0.8308E+00  0.2254E+02
   1.378  0.8348E+00  0.2255E+02
   1.388  0.8386E+00  0.2255E+02
   1.398  0.8423E+00  0.2256E+02
   1.408  0.8458E+00  0.2257E+02
   1.418  0.8492E+00  0.2258E+02
   1.428  0.8523E+00  0.2259E+02
   1.438  0.8553E+00  0.2260E+02
   1.448  0.8581E+00  0.2260E+02
   1.458  0.8608E+00  0.2261E+02
   1.468  0.8632E+00  0.2262E+02
   1.478  0.8654E+00  0.2263E+02
   1.488  0.8675E+00  0.2264E+02
   1.498  0.8694E+00  0.2265E+02
   1.508  0.8710E+00  0.2266E+02
   1.518  0.8725E+00  0.2267E+02
   1.528  0.8738E+00  0.2267E+02
   1.538  0.8748E+00  0.2268E+02
   1.548  0.8757E+00  0.2269E+02
   1.558  0.8764E+00  0.2270E+02
   1.568  0.8769E+00  0.2271E+02
   1.578  0.8772E+00  0.2272E+02
   1.588  0.8772E+00  0.2273E+02
   1.598  0.8771E+00  0.2274E+02
   1.608  0.8768E+00  0.2274E+02
   1.618  0.8763E+00  0.2275E+02
   1.628  0.8756E+00  0.2276E+02
   1.638  0.8747E+00  0.2277E+02
   1.648  0.8736E+00  0.2278E+02
   1.658  0.8724E+00  0.2279E+02
   1.668  0.8709E+00  0.2280E+02
   1.678  0.8693E+00  0.2281E+02
   1.688  0.8674E+00  0.2281E+02
   1.698  0.8654E+00  0.2282E+02
   1.708  0.8632E+00  0.2283E+02
   1.718  0.8609E+00  0.2284E+02
   1.728  0.8583E+00  0.2285E+02
   1.738  0.8557E+00  0.2286E+02
   1.748  0.8528E+00  0.2287E+02
   1.758  0.8498E+00  0.2287E+02
   1.768  0.8466E+00  0.2288E+02
   1.778  0.8433E+00  0.2289E+02
   1.788  0.8398E+00  0.2290E+02
   1.798  0.8362E+00  0.2291E+02
   1.808  0.8325E+00  0.2292E+02
   1.818  0.8286E+00  0.2292E+02
   1.828  0.8246E+00  0.2293E+02
   1.838  0.8204E+00  0.2294E+02
   1.848  0.8162E+00  0.2295E+02
   1.858  0.8118E+00  0.2296E+02
   1.868  0.8073E+00  0.2296E+02
   1.878  0.8027E+00  0.2297E+02
   1.888  0.7981E+00  0.2298E+02
   1.898  0.7933E+00  0.2299E+02
   1.908  0.7884E+00  0.2300E+02
   1.918  0.7835E+00  0.2300E+02
   1.928  0.7784E+00  0.2301E+02
   1.938  0.7733E+00  0.2302E+02
   1.948  0.7682E+00  0.2303E+02
   1.958  0.7629E+00  0.2304E+02
   1.968  0.7576E+00  0.2304E+02
   1.978  0.7523E+00  0.2305E+02
   1.988  0.7469E+00  0.2306E+02
   1.998  0.7415E+00  0.2307E+02
   2.008  0.7360E+00  0.2307E+02
   2.018  0.7305E+00  0.2308E+02
   2.028  0.7249E+00  0.2309E+02
   2.038  0.7193E+00  0.2309E+02
   2.048  0.7137E+00  0.2310E+02
   2.058  0.7081E+00  0.2311E+02
   2.068  0.7025E+00  0.2312E+02
   2.078  0.6969E+00  0.2312E+02
   2.088  0.6912E+00  0.2313E+02
   2.098  0.6856E+00  0.2314E+02
   2.108  0.6799E+00  0.2314E+02
   2.118  0.6743E+00  0.2315E+02
   2.128  0.6687E+00  0.2316E+02
   2.138  0.6630E+00  0.2316E+02
   2.148  0.6574E+00  0.2317E+02
   2.158  0.6518E+00  0.2318E+02
   2.168  0.6463E+00  0.2318E+02
   2.178  0.6407E+00  0.2319E+02
   2.188  0.6352E+00  0.2320E+02
   2.198  0.6297E+00  0.2320E+02
   2.208  0.6243E+00  0.2321E+02
   2.218  0.6188E+00  0.2321E+02
   2.228  0.6135E+00  0.2322E+02
   2.238  0.6081E+00  0.2323E+02
   2.248  0.6028E+00  0.2323E+02
   2.258  0.5975E+00  0.2324E+02
   2.268  0.5923E+00  0.2324E+02
   2.278  0.5871E+00  0.2325E+02
   2.288  0.5820E+00  0.2326E+02
   2.298  0.5769E+00  0.2326E+02
   2.308  0.5718E+00  0.2327E+02
   2.318  0.5668E+00  0.2327E+02
   2.328  0.5619E+00  0.2328E+02
   2.338  0.5570E+00  0.2328E+02
   2.348  0.5521E+00  0.2329E+02
   2.358  0.5473E+00  0.2330E+02
   2.368  0.5426E+00  0.2330E+02
   2.378  0.5379E+00  0.2331E+02
   2.388  0.5332E+00  0.2331E+02
   2.398  0.5286E+00  0.2332E+02
   2.408  0.5241E+00  0.2332E+02
   2.418  0.5196E+00  0.2333E+02
   2.428  0.5151E+00  0.2333E+02
   2.438  0.5108E+00  0.2334E+02
   2.448  0.5064E+00  0.2334E+02
   2.458  0.5021E+00  0.2335E+02
   2.468  0.4979E+00  0.2335E+02
   2.478  0.4937E+00  0.2336E+02
   2.488  0.4896E+00  0.2336E+02
   2.498  0.4855E+00  0.2337E+02
   2.508  0.4815E+00  0.2337E+02
   2.518  0.4775E+00  0.2338E+02
   2.528  0.4736E+00  0.2338E+02
   2.538  0.4697E+00  0.2339E+02
   2.548  0.4659E+00  0.2339E+02
   2.558  0.4621E+00  0.2340E+02
   2.568  0.4584E+00  0.2340E+02
   2.578  0.4547E+00  0.2340E+02
   2.588  0.4510E+00  0.2341E+02
   2.598  0.4474E+00  0.2341E+02
   2.608  0.4439E+00  0.2342E+02
   2.618  0.4403E+00  0.2342E+02
   2.628  0.4369E+00  0.2343E+02
   2.638  0.4334E+00  0.2343E+02
   2.648  0.4300E+00  0.2344E+02
   2.658  0.4267E+00  0.2344E+02
   2.668  0.4234E+00  0.2344E+02
   2.678  0.4201E+00  0.2345E+02
   2.688  0.4169E+00  0.2345E+02
   2.698  0.4137E+00  0.2346E+02
   2.708  0.4105E+00  0.2346E+02
   2.718  0.4074E+00  0.2346E+02
   2.728  0.4043E+00  0.2347E+02
   2.738  0.4013E+00  0.2347E+02
   2.748  0.3982E+00  0.2348E+02
   2.758  0.3953E+00  0.2348E+02
   2.768  0.3923E+00  0.2348E+02
   2.778  0.3894E+00  0.2349E+02
   2.788  0.3865E+00  0.2349E+02
   2.798  0.3836E+00  0.2350E+02
   2.808  0.3808E+00  0.2350E+02
   2.818  0.3780E+00  0.2350E+02
   2.828  0.3753E+00  0.2351E+02
   2.838  0.3725E+00  0.2351E+02
   2.848  0.3698E+00  0.2352E+02
   2.858  0.3671E+00  0.2352E+02
   2.868  0.3645E+00  0.2352E+02
   2.878  0.3619E+00  0.2353E+02
   2.888  0.3593E+00  0.2353E+02
   2.898  0.3567E+00  0.2353E+02
   2.908  0.3542E+00  0.2354E+02
   2.918  0.3516E+00  0.2354E+02
   2.928  0.3491E+00  0.2354E+02
   2.938  0.3467E+00  0.2355E+02
   2.948  0.3442E+00  0.2355E+02
   2.958  0.3418E+00  0.2355E+02
   2.968  0.3394E+00  0.2356E+02
   2.978  0.3370E+00  0.2356E+02
   2.988  0.3347E+00  0.2356E+02
   2.998  0.3324E+00  0.2357E+02
   3.008  0.3301E+00  0.2357E+02
   3.018  0.3278E+00  0.2357E+02
   3.028  0.3255E+00  0.2358E+02
   3.038  0.3233E+00  0.2358E+02
   3.048  0.3211E+00  0.2358E+02
   3.058  0.3189E+00  0.2359E+02
   3.068  0.3167E+00  0.2359E+02
   3.078  0.3146E+00  0.2359E+02
   3.088  0.3124E+00  0.2360E+02
   3.098  0.3103E+00  0.2360E+02
   3.108  0.3082E+00  0.2360E+02
   3.118  0.3061E+00  0.2361E+02
   3.128  0.3041E+00  0.2361E+02
   3.138  0.3021E+00  0.2361E+02
   3.148  0.3001E+00  0.2361E+02
   3.158  0.2981E+00  0.2362E+02
   3.168  0.2961E+00  0.2362E+02
   3.178  0.2941E+00  0.2362E+02
   3.188  0.2922E+00  0.2363E+02
   3.198  0.2903E+00  0.2363E+02
   3.208  0.2884E+00  0.2363E+02
   3.218  0.2865E+00  0.2364E+02
   3.228  0.2847E+00  0.2364E+02
   3.238  0.2828E+00  0.2364E+02
   3.248  0.2810E+00  0.2364E+02
   3.258  0.2792E+00  0.2365E+02
   3.268  0.2774E+00  0.2365E+02
   3.278  0.2757E+00  0.2365E+02
   3.288  0.2739E+00  0.2365E+02
   3.298  0.2722E+00  0.2366E+02
   3.308  0.2705E+00  0.2366E+02
   3.318  0.2689E+00  0.2366E+02
   3.328  0.2672E+00  0.2367E+02
   3.338  0.2656E+00  0.2367E+02
   3.348  0.2640E+00  0.2367E+02
   3.358  0.2624E+00  0.2367E+02
   3.368  0.2608E+00  0.2368E+02
   3.378  0.2593E+00  0.2368E+02
   3.388  0.2578E+00  0.2368E+02
   3.398  0.2563E+00  0.2368E+02
   3.408  0.2549E+00  0.2369E+02
   3.418  0.2535E+00  0.2369E+02
   3.428  0.2521E+00  0.2369E+02
   3.438  0.2507E+00  0.2369E+02
   3.448  0.2494E+00  0.2370E+02
   3.458  0.2481E+00  0.2370E+02
   3.468  0.2469E+00  0.2370E+02
   3.478  0.2456E+00  0.2370E+02
   3.488  0.2445E+00  0.2371E+02
   3.498  0.2433E+00  0.2371E+02
   3.508  0.2422E+00  0.2371E+02
   3.518  0.2412E+00  0.2371E+02
   3.528  0.2402E+00  0.2372E+02
   3.538  0.2393E+00  0.2372E+02
   3.548  0.2384E+00  0.2372E+02
   3.558  0.2375E+00  0.2372E+02
   3.568  0.2367E+00  0.2373E+02
   3.578  0.2360E+00  0.2373E+02
   3.588  0.2353E+00  0.2373E+02
   3.598  0.2347E+00  0.2373E+02
   3.608  0.2342E+00  0.2373E+02
   3.618  0.2337E+00  0.2374E+02
   3.628  0.2333E+00  0.2374E+02
   3.638  0.2330E+00  0.2374E+02
   3.648  0.2328E+00  0.2374E+02
   3.658  0.2326E+00  0.2375E+02
   3.668  0.2326E+00  0.2375E+02
   3.678  0.2326E+00  0.2375E+02
   3.688  0.2327E+00  0.2375E+02
   3.698  0.2329E+00  0.2376E+02
   3.708  0.2332E+00  0.2376E+02
   3.718  0.2336E+00  0.2376E+02
   3.728  0.2341E+00  0.2376E+02
   3.738  0.2348E+00  0.2377E+02
   3.748  0.2355E+00  0.2377E+02
   3.758  0.2364E+00  0.2377E+02
   3.768  0.2374E+00  0.2377E+02
   3.778  0.2385E+00  0.2377E+02
   3.788  0.2397E+00  0.2378E+02
   3.798  0.2411E+00  0.2378E+02
   3.808  0.2426E+00  0.2378E+02
   3.818  0.2443E+00  0.2378E+02
   3.828  0.2461E+00  0.2379E+02
   3.838  0.2481E+00  0.2379E+02
   3.848  0.2502E+00  0.2379E+02
   3.858  0.2525E+00  0.2379E+02
   3.868  0.2549E+00  0.2380E+02
   3.878  0.2575E+00  0.2380E+02
   3.888  0.2603E+00  0.2380E+02
   3.898  0.2633E+00  0.2380E+02
   3.908  0.2664E+00  0.2381E+02
   3.918  0.2698E+00  0.2381E+02
   3.928  0.2733E+00  0.2381E+02
   3.938  0.2770E+00  0.2382E+02
   3.948  0.2809E+00  0.2382E+02
   3.958  0.2850E+00  0.2382E+02
   3.968  0.2893E+00  0.2382E+02
   3.978  0.2938E+00  0.2383E+02
   3.988  0.2985E+00  0.2383E+02
   3.998  0.3035E+00  0.2383E+02
   4.008  0.3086E+00  0.2384E+02
   4.018  0.3140E+00  0.2384E+02
   4.028  0.3196E+00  0.2384E+02
   4.038  0.3254E+00  0.2385E+02
   4.048  0.3314E+00  0.2385E+02
   4.058  0.3376E+00  0.2385E+02
   4.068  0.3441E+00  0.2386E+02
   4.078  0.3508E+00  0.2386E+02
   4.088  0.3578E+00  0.2386E+02
   4.098  0.3649E+00  0.2387E+02
   4.108  0.3723E+00  0.2387E+02
   4.118  0.3800E+00  0.2387E+02
   4.128  0.3878E+00  0.2388E+02
   4.138  0.3959E+00  0.2388E+02
   4.148  0.4042E+00  0.2389E+02
   4.158  0.4128E+00  0.2389E+02
   4.168  0.4215E+00  0.2389E+02
   4.178  0.4306E+00  0.2390E+02
   4.188  0.4398E+00  0.2390E+02
   4.198  0.4492E+00  0.2391E+02
   4.208  0.4589E+00  0.2391E+02
   4.218  0.4688E+00  0.2392E+02
   4.228  0.4789E+00  0.2392E+02
   4.238  0.4892E+00  0.2393E+02
   4.248  0.4997E+00  0.2393E+02
   4.258  0.5104E+00  0.2394E+02
   4.268  0.5213E+00  0.2394E+02
   4.278  0.5324E+00  0.2395E+02
   4.288  0.5437E+00  0.2395E+02
   4.298  0.5552E+00  0.2396E+02
   4.308  0.5668E+00  0.2396E+02
   4.318  0.5787E+00  0.2397E+02
   4.328  0.5907E+00  0.2398E+02
   4.338  0.6028E+00  0.2398E+02
   4.348  0.6151E+00  0.2399E+02
   4.358  0.6275E+00  0.2399E+02
   4.368  0.6401E+00  0.2400E+02
   4.378  0.6528E+00  0.2401E+02
   4.388  0.6656E+00  0.2401E+02
   4.398  0.6786E+00  0.2402E+02
   4.408  0.6916E+00  0.2403E+02
   4.418  0.7047E+00  0.2403E+02
   4.428  0.7180E+00  0.2404E+02
   4.438  0.7313E+00  0.2405E+02
   4.448  0.7446E+00  0.2406E+02
   4.458  0.7581E+00  0.2406E+02
   4.468  0.7716E+00  0.2407E+02
   4.478  0.7851E+00  0.2408E+02
   4.488  0.7987E+00  0.2409E+02
   4.498  0.8123E+00  0.2410E+02
   4.508  0.8259E+00  0.2410E+02
   4.518  0.8395E+00  0.2411E+02
   4.528  0.8531E+00  0.2412E+02
   4.538  0.8667E+00  0.2413E+02
   4.548  0.8803E+00  0.2414E+02
   4.558  0.8939E+00  0.2415E+02
   4.568  0.9074E+00  0.2416E+02
   4.578  0.9209E+00  0.2417E+02
   4.588  0.9343E+00  0.2417E+02
   4.598  0.9477E+00  0.2418E+02
   4.608  0.9610E+00  0.2419E+02
   4.618  0.9742E+00  0.2420E+02
   4.628  0.9874E+00  0.2421E+02
   4.638  0.1000E+01  0.2422E+02
   4.648  0.1013E+01  0.2423E+02
   4.658  0.1026E+01  0.2424E+02
   4.668  0.1039E+01  0.2425E+02
   4.678  0.1052E+01  0.2426E+02
   4.688  0.1064E+01  0.2428E+02
   4.698  0.1076E+01  0.2429E+02
   4.708  0.1089E+01  0.2430E+02
   4.718  0.1101E+01  0.2431E+02
   4.728  0.1113E+01  0.2432E+02
   4.738  0.1125E+01  0.2433E+02
   4.748  0.1136E+01  0.2434E+02
   4.758  0.1148E+01  0.2435E+02
   4.768  0.1159E+01  0.2436E+02
   4.778  0.1170E+01  0.2438E+02
   4.788  0.1181E+01  0.2439E+02
   4.798  0.1192E+01  0.2440E+02
   4.808  0.1203E+01  0.2441E+02
   4.818  0.1213E+01  0.2442E+02
   4.828  0.1224E+01  0.2444E+02
   4.838  0.1234E+01  0.2445E+02
   4.848  0.1244E+01  0.2446E+02
   4.858  0.1254E+01  0.2447E+02
   4.868  0.1264E+01  0.2449E+02
   4.878  0.1273E+01  0.2450E+02
   4.888  0.1283E+01  0.2451E+02
   4.898  0.1292E+01  0.2453E+02
   4.908  0.1301E+01  0.2454E+02
   4.918  0.1310E+01  0.2455E+02
   4.928  0.1318E+01  0.2456E+02
   4.938  0.1327E+01  0.2458E+02
   4.948  0.1335E+01  0.2459E+02
   4.958  0.1344E+01  0.2460E+02
   4.968  0.1352E+01  0.2462E+02
   4.978  0.1360E+01  0.2463E+02
   4.988  0.1367E+01  0.2465E+02
   4.998  0.1375E+01  0.2466E+02
   5.008  0.1383E+01  0.2467E+02
   5.018  0.1390E+01  0.2469E+02
   5.028  0.1397E+01  0.2470E+02
   5.038  0.1404E+01  0.2471E+02
   5.048  0.1411E+01  0.2473E+02
   5.058  0.1418E+01  0.2474E+02
   5.068  0.1425E+01  0.2476E+02
   5.078  0.1432E+01  0.2477E+02
   5.088  0.1438E+01  0.2479E+02
   5.098  0.1444E+01  0.2480E+02
   5.108  0.1451E+01  0.2481E+02
   5.118  0.1457E+01  0.2483E+02
   5.128  0.1463E+01  0.2484E+02
   5.138  0.1469E+01  0.2486E+02
   5.148  0.1475E+01  0.2487E+02
   5.158  0.1481E+01  0.2489E+02
   5.168  0.1486E+01  0.2490E+02
   5.178  0.1492E+01  0.2492E+02
   5.188  0.1497E+01  0.2493E+02
   5.198  0.1503E+01  0.2495E+02
   5.208  0.1508E+01  0.2496E+02
   5.218  0.1514E+01  0.2498E+02
   5.228  0.1519E+01  0.2499E+02
   5.238  0.1524E+01  0.2501E+02
   5.248  0.1529E+01  0.2502E+02
   5.258  0.1534E+01  0.2504E+02
   5.268  0.1539E+01  0.2505E+02
   5.278  0.1543E+01  0.2507E+02
   5.288  0.1548E+01  0.2509E+02
   5.298  0.1553E+01  0.2510E+02
   5.308  0.1557E+01  0.2512E+02
   5.318  0.1562E+01  0.2513E+02
   5.328  0.1566E+01  0.2515E+02
   5.338  0.1571E+01  0.2516E+02
   5.348  0.1575E+01  0.2518E+02
   5.358  0.1579E+01  0.2520E+02
   5.368  0.1583E+01  0.2521E+02
   5.378  0.1587E+01  0.2523E+02
   5.388  0.1591E+01  0.2524E+02
   5.398  0.1595E+01  0.2526E+02
   5.408  0.1598E+01  0.2527E+02
   5.418  0.1602E+01  0.2529E+02
   5.428  0.1606E+01  0.2531E+02
   5.438  0.1609E+01  0.2532E+02
   5.448  0.1613E+01  0.2534E+02
   5.458  0.1616E+01  0.2536E+02
   5.468  0.1619E+01  0.2537E+02
   5.478  0.1622E+01  0.2539E+02
   5.488  0.1625E+01  0.2540E+02
   5.498  0.1628E+01  0.2542E+02
   5.508  0.1631E+01  0.2544E+02
   5.518  0.1634E+01  0.2545E+02
   5.528  0.1636E+01  0.2547E+02
   5.538  0.1639E+01  0.2549E+02
   5.548  0.1641E+01  0.2550E+02
   5.558  0.1643E+01  0.2552E+02
   5.568  0.1645E+01  0.2553E+02
   5.578  0.1647E+01  0.2555E+02
   5.588  0.1649E+01  0.2557E+02
   5.598  0.1651E+01  0.2558E+02
   5.608  0.1653E+01  0.2560E+02
   5.618  0.1654E+01  0.2562E+02
   5.628  0.1656E+01  0.2563E+02
   5.638  0.1657E+01  0.2565E+02
   5.648  0.1658E+01  0.2567E+02
   5.658  0.1659E+01  0.2568E+02
   5.668  0.1660E+01  0.2570E+02
   5.678  0.1661E+01  0.2572E+02
   5.688  0.1661E+01  0.2573E+02
   5.698  0.1662E+01  0.2575E+02
   5.708  0.1662E+01  0.2577E+02
   5.718  0.1662E+01  0.2578E+02
   5.728  0.1663E+01  0.2580E+02
   5.738  0.1663E+01  0.2582E+02
   5.748  0.1662E+01  0.2583E+02
   5.758  0.1662E+01  0.2585E+02
   5.768  0.1662E+01  0.2587E+02
   5.778  0.1661E+01  0.2588E+02
   5.788  0.1661E+01  0.2590E+02
   5.798  0.1660E+01  0.2592E+02
   5.808  0.1659E+01  0.2593E+02
   5.818  0.1658E+01  0.2595E+02
   5.828  0.1657E+01  0.2597E+02
   5.838  0.1655E+01  0.2598E+02
   5.848  0.1654E+01  0.2600E+02
   5.858  0.1653E+01  0.2602E+02
   5.868  0.1651E+01  0.2603E+02
   5.878  0.1649E+01  0.2605E+02
   5.888  0.1647E+01  0.2607E+02
   5.898  0.1645E+01  0.2608E+02
   5.908  0.1643E+01  0.2610E+02
   5.918  0.1641E+01  0.2611E+02
   5.928  0.1639E+01  0.2613E+02
   5.938  0.1636E+01  0.2615E+02
   5.948  0.1634E+01  0.2616E+02
   5.958  0.1631E+01  0.2618E+02
   5.968  0.1628E+01  0.2620E+02
   5.978  0.1626E+01  0.2621E+02
   5.988  0.1623E+01  0.2623E+02
   5.998  0.1620E+01  0.2624E+02
   6.008  0.1616E+01  0.2626E+02
   6.018  0.1613E+01  0.2628E+02
   6.028  0.1610E+01  0.2629E+02
   6.038  0.1607E+01  0.2631E+02
   6.048  0.1603E+01  0.2633E+02
   6.058  0.1599E+01  0.2634E+02
   6.068  0.1596E+01  0.2636E+02
   6.078  0.1592E+01  0.2637E+02
   6.088  0.1588E+01  0.2639E+02
   6.098  0.1584E+01  0.2640E+02
   6.108  0.1580E+01  0.2642E+02
   6.118  0.1576E+01  0.2644E+02
   6.128  0.1572E+01  0.2645E+02
   6.138  0.1567E+01  0.2647E+02
   6.148  0.1563E+01  0.2648E+02
   6.158  0.1559E+01  0.2650E+02
   6.168  0.1554E+01  0.2651E+02
   6.178  0.1549E+01  0.2653E+02
   6.188  0.1545E+01  0.2655E+02
   6.198  0.1540E+01  0.2656E+02
   6.208  0.1535E+01  0.2658E+02
   6.218  0.1530E+01  0.2659E+02
   6.228  0.1525E+01  0.2661E+02
   6.238  0.1520E+01  0.2662E+02
   6.248  0.1515E+01  0.2664E+02
   6.258  0.1509E+01  0.2665E+02
   6.268  0.1504E+01  0.2667E+02
   6.278  0.1498E+01  0.2668E+02
   6.288  0.1493E+01  0.2670E+02
   6.298  0.1487E+01  0.2671E+02
   6.308  0.1481E+01  0.2673E+02
   6.318  0.1476E+01  0.2674E+02
   6.328  0.1470E+01  0.2676E+02
   6.338  0.1464E+01  0.2677E+02
   6.348  0.1457E+01  0.2679E+02
   6.358  0.1451E+01  0.2680E+02
   6.368  0.1445E+01  0.2681E+02
   6.378  0.1438E+01  0.2683E+02
   6.388  0.1432E+01  0.2684E+02
   6.398  0.1425E+01  0.2686E+02
   6.408  0.1419E+01  0.2687E+02
   6.418  0.1412E+01  0.2689E+02
   6.428  0.1405E+01  0.2690E+02
   6.438  0.1398E+01  0.2691E+02
   6.448  0.1391E+01  0.2693E+02
   6.458  0.1383E+01  0.2694E+02
   6.468  0.1376E+01  0.2696E+02
   6.478  0.1369E+01  0.2697E+02
   6.488  0.1361E+01  0.2698E+02
   6.498  0.1353E+01  0.2700E+02
   6.508  0.1346E+01  0.2701E+02
   6.518  0.1338E+01  0.2702E+02
   6.528  0.1330E+01  0.2704E+02
   6.538  0.1322E+01  0.2705E+02
   6.548  0.1313E+01  0.2706E+02
   6.558  0.1305E+01  0.2708E+02
   6.568  0.1297E+01  0.2709E+02
   6.578  0.1288E+01  0.2710E+02
   6.588  0.1280E+01  0.2711E+02
   6.598  0.1271E+01  0.2713E+02
   6.608  0.1262E+01  0.2714E+02
   6.618  0.1253E+01  0.2715E+02
   6.628  0.1244E+01  0.2716E+02
   6.638  0.1235E+01  0.2718E+02
   6.648  0.1226E+01  0.2719E+02
   6.658  0.1217E+01  0.2720E+02
   6.668  0.1207E+01  0.2721E+02
   6.678  0.1198E+01  0.2723E+02
   6.688  0.1188E+01  0.2724E+02
   6.698  0.1178E+01  0.2725E+02
   6.708  0.1169E+01  0.2726E+02
   6.718  0.1159E+01  0.2727E+02
   6.728  0.1149E+01  0.2728E+02
   6.738  0.1139E+01  0.2730E+02
   6.748  0.1129E+01  0.2731E+02
   6.758  0.1119E+01  0.2732E+02
   6.768  0.1109E+01  0.2733E+02
   6.778  0.1098E+01  0.2734E+02
   6.788  0.1088E+01  0.2735E+02
   6.798  0.1078E+01  0.2736E+02
   6.808  0.1067E+01  0.2737E+02
   6.818  0.1057E+01  0.2738E+02
   6.828  0.1046E+01  0.2739E+02
   6.838  0.1036E+01  0.2740E+02
   6.848  0.1025E+01  0.2741E+02
   6.858  0.1014E+01  0.2742E+02
   6.868  0.1004E+01  0.2743E+02
   6.878  0.9928E+00  0.2744E+02
   6.888  0.9820E+00  0.2745E+02
   6.898  0.9712E+00  0.2746E+02
   6.908  0.9604E+00  0.2747E+02
   6.918  0.9496E+00  0.2748E+02
   6.928  0.9387E+00  0.2749E+02
   6.938  0.9278E+00  0.2750E+02
   6.948  0.9170E+00  0.2751E+02
   6.958  0.9061E+00  0.2752E+02
   6.968  0.8952E+00  0.2753E+02
   6.978  0.8844E+00  0.2754E+02
   6.988  0.8735E+00  0.2755E+02
   6.998  0.8627E+00  0.2755E+02
   7.008  0.8518E+00  0.2756E+02
   7.018  0.8410E+00  0.2757E+02
   7.028  0.8302E+00  0.2758E+02
   7.038  0.8194E+00  0.2759E+02
   7.048  0.8087E+00  0.2760E+02
   7.058  0.7980E+00  0.2760E+02
   7.068  0.7873E+00  0.2761E+02
   7.078  0.7767E+00  0.2762E+02
   7.088  0.7661E+00  0.2763E+02
   7.098  0.7556E+00  0.2764E+02
   7.108  0.7451E+00  0.2764E+02
   7.118  0.7346E+00  0.2765E+02
   7.128  0.7243E+00  0.2766E+02
   7.138  0.7139E+00  0.2766E+02
   7.148  0.7037E+00  0.2767E+02
   7.158  0.6935E+00  0.2768E+02
   7.168  0.6833E+00  0.2769E+02
   7.178  0.6732E+00  0.2769E+02
   7.188  0.6632E+00  0.2770E+02
   7.198  0.6533E+00  0.2770E+02
   7.208  0.6435E+00  0.2771E+02
   7.218  0.6337E+00  0.2772E+02
   7.228  0.6240E+00  0.2772E+02
   7.238  0.6144E+00  0.2773E+02
   7.248  0.6049E+00  0.2774E+02
   7.258  0.5954E+00  0.2774E+02
   7.268  0.5861E+00  0.2775E+02
   7.278  0.5768E+00  0.2775E+02
   7.288  0.5676E+00  0.2776E+02
   7.298  0.5585E+00  0.2776E+02
   7.308  0.5496E+00  0.2777E+02
   7.318  0.5407E+00  0.2778E+02
   7.328  0.5319E+00  0.2778E+02
   7.338  0.5232E+00  0.2779E+02
   7.348  0.5146E+00  0.2779E+02
   7.358  0.5061E+00  0.2780E+02
   7.368  0.4977E+00  0.2780E+02
   7.378  0.4894E+00  0.2781E+02
   7.388  0.4812E+00  0.2781E+02
   7.398  0.4731E+00  0.2782E+02
   7.408  0.4652E+00  0.2782E+02
   7.418  0.4573E+00  0.2783E+02
   7.428  0.4496E+00  0.2783E+02
   7.438  0.4419E+00  0.2783E+02
   7.448  0.4344E+00  0.2784E+02
   7.458  0.4270E+00  0.2784E+02
   7.468  0.4197E+00  0.2785E+02
   7.478  0.4125E+00  0.2785E+02
   7.488  0.4054E+00  0.2786E+02
   7.498  0.3984E+00  0.2786E+02
   7.508  0.3916E+00  0.2786E+02
   7.518  0.3848E+00  0.2787E+02
   7.528  0.3782E+00  0.2787E+02
   7.538  0.3717E+00  0.2787E+02
   7.548  0.3653E+00  0.2788E+02
   7.558  0.3591E+00  0.2788E+02
   7.568  0.3529E+00  0.2789E+02
   7.578  0.3469E+00  0.2789E+02
   7.588  0.3410E+00  0.2789E+02
   7.598  0.3352E+00  0.2790E+02
   7.608  0.3296E+00  0.2790E+02
   7.618  0.3241E+00  0.2790E+02
   7.628  0.3187E+00  0.2791E+02
   7.638  0.3134E+00  0.2791E+02
   7.648  0.3082E+00  0.2791E+02
   7.658  0.3032E+00  0.2791E+02
   7.668  0.2983E+00  0.2792E+02
   7.678  0.2936E+00  0.2792E+02
   7.688  0.2889E+00  0.2792E+02
   7.698  0.2844E+00  0.2793E+02
   7.708  0.2801E+00  0.2793E+02
   7.718  0.2759E+00  0.2793E+02
   7.728  0.2718E+00  0.2793E+02
   7.738  0.2678E+00  0.2794E+02
   7.748  0.2640E+00  0.2794E+02
   7.758  0.2603E+00  0.2794E+02
   7.768  0.2568E+00  0.2794E+02
   7.778  0.2534E+00  0.2795E+02
   7.788  0.2501E+00  0.2795E+02
   7.798  0.2470E+00  0.2795E+02
   7.808  0.2441E+00  0.2795E+02
   7.818  0.2412E+00  0.2796E+02
   7.828  0.2386E+00  0.2796E+02
   7.838  0.2361E+00  0.2796E+02
   7.848  0.2337E+00  0.2796E+02
   7.858  0.2315E+00  0.2797E+02
   7.868  0.2294E+00  0.2797E+02
   7.878  0.2275E+00  0.2797E+02
   7.888  0.2258E+00  0.2797E+02
   7.898  0.2242E+00  0.2798E+02
   7.908  0.2228E+00  0.2798E+02
   7.918  0.2215E+00  0.2798E+02
   7.928  0.2204E+00  0.2798E+02
   7.938  0.2195E+00  0.2798E+02
   7.948  0.2188E+00  0.2799E+02
   7.958  0.2182E+00  0.2799E+02
   7.968  0.2177E+00  0.2799E+02
   7.978  0.2175E+00  0.2799E+02
   7.988  0.2174E+00  0.2800E+02
   7.998  0.2175E+00  0.2800E+02
   8.008  0.2178E+00  0.2800E+02
   8.018  0.2183E+00  0.2800E+02
   8.028  0.2189E+00  0.2800E+02
   8.038  0.2197E+00  0.2801E+02
   8.048  0.2207E+00  0.2801E+02
   8.058  0.2219E+00  0.2801E+02
   8.068  0.2233E+00  0.2801E+02
   8.078  0.2249E+00  0.2802E+02
   8.088  0.2266E+00  0.2802E+02
   8.098  0.2286E+00  0.2802E+02
   8.108  0.2307E+00  0.2802E+02
   8.118  0.2331E+00  0.2802E+02
   8.128  0.2356E+00  0.2803E+02
   8.138  0.2384E+00  0.2803E+02
   8.148  0.2413E+00  0.2803E+02
   8.158  0.2444E+00  0.2803E+02
   8.168  0.2478E+00  0.2804E+02
   8.178  0.2513E+00  0.2804E+02
   8.188  0.2551E+00  0.2804E+02
   8.198  0.2590E+00  0.2804E+02
   8.208  0.2632E+00  0.2805E+02
   8.218  0.2676E+00  0.2805E+02
   8.228  0.2721E+00  0.2805E+02
   8.238  0.2769E+00  0.2805E+02
   8.248  0.2819E+00  0.2806E+02
   8.258  0.2872E+00  0.2806E+02
   8.268  0.2926E+00  0.2806E+02
   8.278  0.2982E+00  0.2807E+02
   8.288  0.3041E+00  0.2807E+02
   8.298  0.3102E+00  0.2807E+02
   8.308  0.3165E+00  0.2808E+02
   8.318  0.3230E+00  0.2808E+02
   8.328  0.3298E+00  0.2808E+02
   8.338  0.3367E+00  0.2809E+02
   8.348  0.3439E+00  0.2809E+02
   8.358  0.3513E+00  0.2809E+02
   8.368  0.3589E+00  0.2810E+02
   8.378  0.3668E+00  0.2810E+02
   8.388  0.3748E+00  0.2810E+02
   8.398  0.3831E+00  0.2811E+02
   8.408  0.3916E+00  0.2811E+02
   8.418  0.4003E+00  0.2812E+02
   8.428  0.4093E+00  0.2812E+02
   8.438  0.4184E+00  0.2812E+02
   8.448  0.4278E+00  0.2813E+02
   8.458  0.4374E+00  0.2813E+02
   8.468  0.4472E+00  0.2814E+02
   8.478  0.4572E+00  0.2814E+02
   8.488  0.4675E+00  0.2815E+02
   8.498  0.4779E+00  0.2815E+02
   8.508  0.4886E+00  0.2816E+02
   8.518  0.4995E+00  0.2816E+02
   8.528  0.5106E+00  0.2817E+02
   8.538  0.5218E+00  0.2817E+02
   8.548  0.5333E+00  0.2818E+02
   8.558  0.5450E+00  0.2818E+02
   8.568  0.5569E+00  0.2819E+02
   8.578  0.5690E+00  0.2819E+02
   8.588  0.5812E+00  0.2820E+02
   8.598  0.5937E+00  0.2820E+02
   8.608  0.6063E+00  0.2821E+02
   8.618  0.6192E+00  0.2822E+02
   8.628  0.6322E+00  0.2822E+02
   8.638  0.6453E+00  0.2823E+02
   8.648  0.6587E+00  0.2824E+02
   8.658  0.6721E+00  0.2824E+02
   8.668  0.6858E+00  0.2825E+02
   8.678  0.6996E+00  0.2826E+02
   8.688  0.7135E+00  0.2826E+02
   8.698  0.7276E+00  0.2827E+02
   8.708  0.7418E+00  0.2828E+02
   8.718  0.7562E+00  0.2829E+02
   8.728  0.7706E+00  0.2829E+02
   8.738  0.7852E+00  0.2830E+02
   8.748  0.7999E+00  0.2831E+02
   8.758  0.8146E+00  0.2832E+02
   8.768  0.8295E+00  0.2833E+02
   8.778  0.8444E+00  0.2833E+02
   8.788  0.8595E+00  0.2834E+02
   8.798  0.8745E+00  0.2835E+02
   8.808  0.8897E+00  0.2836E+02
   8.818  0.9048E+00  0.2837E+02
   8.828  0.9201E+00  0.2838E+02
   8.838  0.9353E+00  0.2839E+02
   8.848  0.9506E+00  0.2840E+02
   8.858  0.9658E+00  0.2841E+02
   8.868  0.9811E+00  0.2842E+02
   8.878  0.9963E+00  0.2843E+02
   8.888  0.1012E+01  0.2844E+02
   8.898  0.1027E+01  0.2845E+02
   8.908  0.1042E+01  0.2846E+02
   8.918  0.1057E+01  0.2847E+02
   8.928  0.1072E+01  0.2848E+02
   8.938  0.1087E+01  0.2849E+02
   8.948  0.1102E+01  0.2850E+02
   8.958  0.1117E+01  0.2851E+02
   8.968  0.1131E+01  0.2852E+02
   8.978  0.1146E+01  0.2854E+02
   8.988  0.1160E+01  0.2855E+02
   8.998  0.1174E+01  0.2856E+02
   9.008  0.1189E+01  0.2857E+02
   9.018  0.1202E+01  0.2858E+02
   9.028  0.1216E+01  0.2860E+02
   9.038  0.1230E+01  0.2861E+02
   9.048  0.1243E+01  0.2862E+02
   9.058  0.1256E+01  0.2863E+02
   9.068  0.1269E+01  0.2864E+02
   9.078  0.1282E+01  0.2866E+02
   9.088  0.1295E+01  0.2867E+02
   9.098  0.1307E+01  0.2868E+02
   9.108  0.1319E+01  0.2870E+02
   9.118  0.1330E+01  0.2871E+02
   9.128  0.1342E+01  0.2872E+02
   9.138  0.1353E+01  0.2874E+02
   9.148  0.1364E+01  0.2875E+02
   9.158  0.1375E+01  0.2876E+02
   9.168  0.1385E+01  0.2878E+02
   9.178  0.1395E+01  0.2879E+02
   9.188  0.1405E+01  0.2881E+02
   9.198  0.1414E+01  0.2882E+02
   9.208  0.1423E+01  0.2883E+02
   9.218  0.1432E+01  0.2885E+02
   9.228  0.1440E+01  0.2886E+02
   9.238  0.1448E+01  0.2888E+02
   9.248  0.1456E+01  0.2889E+02
   9.258  0.1463E+01  0.2891E+02
   9.268  0.1470E+01  0.2892E+02
   9.278  0.1476E+01  0.2894E+02
   9.288  0.1483E+01  0.2895E+02
   9.298  0.1489E+01  0.2897E+02
   9.308  0.1494E+01  0.2898E+02
   9.318  0.1499E+01  0.2900E+02
   9.328  0.1504E+01  0.2901E+02
   9.338  0.1509E+01  0.2903E+02
   9.348  0.1513E+01  0.2904E+02
   9.358  0.1517E+01  0.2906E+02
   9.368  0.1520E+01  0.2907E+02
   9.378  0.1523E+01  0.2909E+02
   9.388  0.1526E+01  0.2910E+02
   9.398  0.1528E+01  0.2912E+02
   9.408  0.1530E+01  0.2913E+02
   9.418  0.1532E+01  0.2915E+02
   9.428  0.1534E+01  0.2916E+02
   9.438  0.1535E+01  0.2918E+02
   9.448  0.1536E+01  0.2919E+02
   9.458  0.1536E+01  0.2921E+02
   9.468  0.1536E+01  0.2923E+02
   9.478  0.1536E+01  0.2924E+02
   9.488  0.1536E+01  0.2926E+02
   9.498  0.1535E+01  0.2927E+02
   9.508  0.1535E+01  0.2929E+02
   9.518  0.1533E+01  0.2930E+02
   9.528  0.1532E+01  0.2932E+02
   9.538  0.1530E+01  0.2933E+02
   9.548  0.1529E+01  0.2935E+02
   9.558  0.1526E+01  0.2936E+02
   9.568  0.1524E+01  0.2938E+02
   9.578  0.1522E+01  0.2939E+02
   9.588  0.1519E+01  0.2941E+02
   9.598  0.1516E+01  0.2942E+02
   9.608  0.1513E+01  0.2944E+02
   9.618  0.1510E+01  0.2945E+02
   9.628  0.1506E+01  0.2947E+02
   9.638  0.1503E+01  0.2948E+02
   9.648  0.1499E+01  0.2950E+02
   9.658  0.1495E+01  0.2951E+02
   9.668  0.1491E+01  0.2953E+02
   9.678  0.1487E+01  0.2954E+02
   9.688  0.1483E+01  0.2956E+02
   9.698  0.1478E+01  0.2957E+02
   9.708  0.1474E+01  0.2959E+02
   9.718  0.1469E+01  0.2960E+02
   9.728  0.1465E+01  0.2962E+02
   9.738  0.1460E+01  0.2963E+02
   9.748  0.1455E+01  0.2965E+02
   9.758  0.1450E+01  0.2966E+02
   9.768  0.1446E+01  0.2968E+02
   9.778  0.1441E+01  0.2969E+02
   9.788  0.1436E+01  0.2970E+02
   9.798  0.1431E+01  0.2972E+02
   9.808  0.1426E+01  0.2973E+02
   9.818  0.1421E+01  0.2975E+02
   9.828  0.1416E+01  0.2976E+02
   9.838  0.1411E+01  0.2978E+02
   9.848  0.1406E+01  0.2979E+02
   9.858  0.1401E+01  0.2980E+02
   9.868  0.1396E+01  0.2982E+02
   9.878  0.1391E+01  0.2983E+02
   9.888  0.1385E+01  0.2985E+02
   9.898  0.1380E+01  0.2986E+02
   9.908  0.1376E+01  0.2987E+02
   9.918  0.1371E+01  0.2989E+02
   9.928  0.1366E+01  0.2990E+02
   9.938  0.1361E+01  0.2991E+02
   9.948  0.1356E+01  0.2993E+02
   9.958  0.1351E+01  0.2994E+02
   9.968  0.1346E+01  0.2995E+02
   9.978  0.1342E+01  0.2997E+02
   9.988  0.1337E+01  0.2998E+02
   9.998  0.1333E+01  0.2999E+02
  10.008  0.1328E+01  0.3001E+02
  10.018  0.1324E+01  0.3002E+02
  10.028  0.1319E+01  0.3003E+02
  10.038  0.1315E+01  0.3005E+02
  10.048  0.1311E+01  0.3006E+02
  10.058  0.1307E+01  0.3007E+02
  10.068  0.1303E+01  0.3009E+02
  10.078  0.1299E+01  0.3010E+02
  10.088  0.1295E+01  0.3011E+02
  10.098  0.1292E+01  0.3013E+02
  10.108  0.1288E+01  0.3014E+02
  10.118  0.1285E+01  0.3015E+02
  10.128  0.1281E+01  0.3016E+02
  10.138  0.1278E+01  0.3018E+02
  10.148  0.1275E+01  0.3019E+02
  10.158  0.1272E+01  0.3020E+02
  10.168  0.1269E+01  0.3021E+02
  10.178  0.1267E+01  0.3023E+02
  10.188  0.1264E+01  0.3024E+02
  10.198  0.1262E+01  0.3025E+02
  10.208  0.1260E+01  0.3027E+02
  10.218  0.1258E+01  0.3028E+02
  10.228  0.1256E+01  0.3029E+02
  10.238  0.1254E+01  0.3030E+02
  10.248  0.1253E+01  0.3032E+02
  10.258  0.1251E+01  0.3033E+02
  10.268  0.1250E+01  0.3034E+02
  10.278  0.1249E+01  0.3035E+02
  10.288  0.1249E+01  0.3037E+02
  10.298  0.1248E+01  0.3038E+02
  10.308  0.1248E+01  0.3039E+02
  10.318  0.1248E+01  0.3040E+02
  10.328  0.1248E+01  0.3042E+02
  10.338  0.1248E+01  0.3043E+02
  10.348  0.1249E+01  0.3044E+02
  10.358  0.1250E+01  0.3045E+02
  10.368  0.1251E+01  0.3047E+02
  10.378  0.1252E+01  0.3048E+02
  10.388  0.1254E+01  0.3049E+02
  10.398  0.1255E+01  0.3050E+02
  10.408  0.1257E+01  0.3052E+02
  10.418  0.1259E+01  0.3053E+02
  10.428  0.1262E+01  0.3054E+02
  10.438  0.1264E+01  0.3055E+02
  10.448  0.1267E+01  0.3057E+02
  10.458  0.1270E+01  0.3058E+02
  10.468  0.1274E+01  0.3059E+02
  10.478  0.1277E+01  0.3060E+02
  10.488  0.1281E+01  0.3062E+02
  10.498  0.1285E+01  0.3063E+02
  10.508  0.1289E+01  0.3064E+02
  10.518  0.1293E+01  0.3066E+02
  10.528  0.1298E+01  0.3067E+02
  10.538  0.1303E+01  0.3068E+02
  10.548  0.1308E+01  0.3070E+02
  10.558  0.1313E+01  0.3071E+02
  10.568  0.1318E+01  0.3072E+02
  10.578  0.1323E+01  0.3073E+02
  10.588  0.1329E+01  0.3075E+02
  10.598  0.1334E+01  0.3076E+02
  10.608  0.1340E+01  0.3077E+02
  10.618  0.1346E+01  0.3079E+02
  10.628  0.1352E+01  0.3080E+02
  10.638  0.1358E+01  0.3082E+02
  10.648  0.1364E+01  0.3083E+02
  10.658  0.1371E+01  0.3084E+02
  10.668  0.1377E+01  0.3086E+02
  10.678  0.1383E+01  0.3087E+02
  10.688  0.1390E+01  0.3088E+02
  10.698  0.1396E+01  0.3090E+02
  10.708  0.1403E+01  0.3091E+02
  10.718  0.1409E+01  0.3093E+02
  10.728  0.1416E+01  0.3094E+02
  10.738  0.1422E+01  0.3095E+02
  10.748  0.1428E+01  0.3097E+02
  10.758  0.1435E+01  0.3098E+02
  10.768  0.1441E+01  0.3100E+02
  10.778  0.1447E+01  0.3101E+02
  10.788  0.1453E+01  0.3103E+02
  10.798  0.1459E+01  0.3104E+02
  10.808  0.1465E+01  0.3106E+02
  10.818  0.1471E+01  0.3107E+02
  10.828  0.1477E+01  0.3109E+02
  10.838  0.1482E+01  0.3110E+02
  10.848  0.1488E+01  0.3111E+02
  10.858  0.1493E+01  0.3113E+02
  10.868  0.1498E+01  0.3114E+02
  10.878  0.1503E+01  0.3116E+02
  10.888  0.1507E+01  0.3117E+02
  10.898  0.1512E+01  0.3119E+02
  10.908  0.1516E+01  0.3121E+02
  10.918  0.1521E+01  0.3122E+02
  10.928  0.1525E+01  0.3124E+02
  10.938  0.1528E+01  0.3125E+02
  10.948  0.1532E+01  0.3127E+02
  10.958  0.1535E+01  0.3128E+02
  10.968  0.1538E+01  0.3130E+02
  10.978  0.1541E+01  0.3131E+02
  10.988  0.1544E+01  0.3133E+02
  10.998  0.1547E+01  0.3134E+02
  11.008  0.1549E+01  0.3136E+02
  11.018  0.1551E+01  0.3137E+02
  11.028  0.1553E+01  0.3139E+02
  11.038  0.1554E+01  0.3141E+02
  11.048  0.1556E+01  0.3142E+02
  11.058  0.1557E+01  0.3144E+02
  11.068  0.1558E+01  0.3145E+02
  11.078  0.1559E+01  0.3147E+02
  11.088  0.1560E+01  0.3148E+02
  11.098  0.1561E+01  0.3150E+02
  11.108  0.1561E+01  0.3151E+02
  11.118  0.1561E+01  0.3153E+02
  11.128  0.1561E+01  0.3155E+02
  11.138  0.1561E+01  0.3156E+02
  11.148  0.1561E+01  0.3158E+02
  11.158  0.1561E+01  0.3159E+02
  11.168  0.1560E+01  0.3161E+02
  11.178  0.1560E+01  0.3162E+02
  11.188  0.1559E+01  0.3164E+02
  11.198  0.1558E+01  0.3165E+02
  11.208  0.1557E+01  0.3167E+02
  11.218  0.1556E+01  0.3169E+02
  11.228  0.1555E+01  0.3170E+02
  11.238  0.1554E+01  0.3172E+02
  11.248  0.1553E+01  0.3173E+02
  11.258  0.1552E+01  0.3175E+02
  11.268  0.1551E+01  0.3176E+02
  11.278  0.1550E+01  0.3178E+02
  11.288  0.1549E+01  0.3179E+02
  11.298  0.1547E+01  0.3181E+02
  11.308  0.1546E+01  0.3183E+02
  11.318  0.1545E+01  0.3184E+02
  11.328  0.1544E+01  0.3186E+02
  11.338  0.1543E+01  0.3187E+02
  11.348  0.1542E+01  0.3189E+02
  11.358  0.1541E+01  0.3190E+02
  11.368  0.1540E+01  0.3192E+02
  11.378  0.1539E+01  0.3193E+02
  11.388  0.1538E+01  0.3195E+02
  11.398  0.1537E+01  0.3196E+02
  11.408  0.1537E+01  0.3198E+02
  11.418  0.1536E+01  0.3200E+02
  11.428  0.1536E+01  0.3201E+02
  11.438  0.1535E+01  0.3203E+02
  11.448  0.1535E+01  0.3204E+02
  11.458  0.1535E+01  0.3206E+02
  11.468  0.1535E+01  0.3207E+02
  11.478  0.1535E+01  0.3209E+02
  11.488  0.1535E+01  0.3210E+02
  11.498  0.1535E+01  0.3212E+02
  11.508  0.1535E+01  0.3213E+02
  11.518  0.1536E+01  0.3215E+02
  11.528  0.1536E+01  0.3216E+02
  11.538  0.1537E+01  0.3218E+02
  11.548  0.1538E+01  0.3219E+02
  11.558  0.1539E+01  0.3221E+02
  11.568  0.1540E+01  0.3223E+02
  11.578  0.1541E+01  0.3224E+02
  11.588  0.1542E+01  0.3226E+02
  11.598  0.1544E+01  0.3227E+02
  11.608  0.1545E+01  0.3229E+02
  11.618  0.1547E+01  0.3230E+02
  11.628  0.1548E+01  0.3232E+02
  11.638  0.1550E+01  0.3233E+02
  11.648  0.1552E+01  0.3235E+02
  11.658  0.1554E+01  0.3236E+02
  11.668  0.1556E+01  0.3238E+02
  11.678  0.1558E+01  0.3240E+02
  11.688  0.1560E+01  0.3241E+02
  11.698  0.1562E+01  0.3243E+02
  11.708  0.1565E+01  0.3244E+02
  11.718  0.1567E+01  0.3246E+02
  11.728  0.1569E+01  0.3247E+02
  11.738  0.1572E+01  0.3249E+02
  11.748  0.1574E+01  0.3251E+02
  11.758  0.1577E+01  0.3252E+02
  11.768  0.1580E+01  0.3254E+02
  11.778  0.1582E+01  0.3255E+02
  11.788  0.1585E+01  0.3257E+02
  11.798  0.1587E+01  0.3258E+02
  11.808  0.1590E+01  0.3260E+02
  11.818  0.1593E+01  0.3262E+02
  11.828  0.1595E+01  0.3263E+02
  11.838  0.1598E+01  0.3265E+02
  11.848  0.1600E+01  0.3266E+02
  11.858  0.1603E+01  0.3268E+02
  11.868  0.1605E+01  0.3270E+02
  11.878  0.1608E+01  0.3271E+02
  11.888  0.1610E+01  0.3273E+02
  11.898  0.1613E+01  0.3274E+02
  11.908  0.1615E+01  0.3276E+02
  11.918  0.1617E+01  0.3278E+02
  11.928  0.1619E+01  0.3279E+02
  11.938  0.1621E+01  0.3281E+02
  11.948  0.1623E+01  0.3283E+02
  11.958  0.1625E+01  0.3284E+02
  11.968  0.1627E+01  0.3286E+02
  11.978  0.1629E+01  0.3287E+02
  11.988  0.1630E+01  0.3289E+02
  11.998  0.1632E+01  0.3291E+02
  12.008  0.1633E+01  0.3292E+02
  12.018  0.1635E+01  0.3294E+02
  12.028  0.1636E+01  0.3296E+02
  12.038  0.1637E+01  0.3297E+02
  12.048  0.1637E+01  0.3299E+02
  12.058  0.1638E+01  0.3301E+02
  12.068  0.1639E+01  0.3302E+02
  12.078  0.1639E+01  0.3304E+02
  12.088  0.1639E+01  0.3305E+02
  12.098  0.1640E+01  0.3307E+02
  12.108  0.1640E+01  0.3309E+02
  12.118  0.1639E+01  0.3310E+02
  12.128  0.1639E+01  0.3312E+02
  12.138  0.1638E+01  0.3314E+02
  12.148  0.1638E+01  0.3315E+02
  12.158  0.1637E+01  0.3317E+02
  12.168  0.1636E+01  0.3319E+02
  12.178  0.1635E+01  0.3320E+02
  12.188  0.1633E+01  0.3322E+02
  12.198  0.1632E+01  0.3323E+02
  12.208  0.1630E+01  0.3325E+02
  12.218  0.1628E+01  0.3327E+02
  12.228  0.1626E+01  0.3328E+02
  12.238  0.1624E+01  0.3330E+02
  12.248  0.1622E+01  0.3332E+02
  12.258  0.1619E+01  0.3333E+02
  12.268  0.1616E+01  0.3335E+02
  12.278  0.1613E+01  0.3336E+02
  12.288  0.1610E+01  0.3338E+02
  12.298  0.1607E+01  0.3340E+02
  12.308  0.1604E+01  0.3341E+02
  12.318  0.1600E+01  0.3343E+02
  12.328  0.1597E+01  0.3344E+02
  12.338  0.1593E+01  0.3346E+02
  12.348  0.1589E+01  0.3348E+02
  12.358  0.1585E+01  0.3349E+02
  12.368  0.1581E+01  0.3351E+02
  12.378  0.1576E+01  0.3352E+02
  12.388  0.1572E+01  0.3354E+02
  12.398  0.1567E+01  0.3356E+02
  12.408  0.1563E+01  0.3357E+02
  12.418  0.1558E+01  0.3359E+02
  12.428  0.1553E+01  0.3360E+02
  12.438  0.1548E+01  0.3362E+02
  12.448  0.1543E+01  0.3363E+02
  12.458  0.1538E+01  0.3365E+02
  12.468  0.1532E+01  0.3366E+02
  12.478  0.1527E+01  0.3368E+02
  12.488  0.1522E+01  0.3369E+02
  12.498  0.1516E+01  0.3371E+02
  12.508  0.1511E+01  0.3372E+02
  12.518  0.1506E+01  0.3374E+02
  12.528  0.1500E+01  0.3375E+02
  12.538  0.1494E+01  0.3377E+02
  12.548  0.1489E+01  0.3378E+02
  12.558  0.1483E+01  0.3380E+02
  12.568  0.1478E+01  0.3381E+02
  12.578  0.1472E+01  0.3383E+02
  12.588  0.1467E+01  0.3384E+02
  12.598  0.1461E+01  0.3386E+02
  12.608  0.1456E+01  0.3387E+02
  12.618  0.1450E+01  0.3389E+02
  12.628  0.1445E+01  0.3390E+02
  12.638  0.1439E+01  0.3392E+02
  12.648  0.1434E+01  0.3393E+02
  12.658  0.1429E+01  0.3394E+02
  12.668  0.1424E+01  0.3396E+02
  12.678  0.1418E+01  0.3397E+02
  12.688  0.1413E+01  0.3399E+02
  12.698  0.1408E+01  0.3400E+02
  12.708  0.1403E+01  0.3401E+02
  12.718  0.1399E+01  0.3403E+02
  12.728  0.1394E+01  0.3404E+02
  12.738  0.1389E+01  0.3406E+02
  12.748  0.1385E+01  0.3407E+02
  12.758  0.1380E+01  0.3408E+02
  12.768  0.1376E+01  0.3410E+02
  12.778  0.1372E+01  0.3411E+02
  12.788  0.1368E+01  0.3413E+02
  12.798  0.1364E+01  0.3414E+02
  12.808  0.1360E+01  0.3415E+02
  12.818  0.1356E+01  0.3417E+02
  12.828  0.1352E+01  0.3418E+02
  12.838  0.1349E+01  0.3419E+02
  12.848  0.1345E+01  0.3421E+02
  12.858  0.1342E+01  0.3422E+02
  12.868  0.1339E+01  0.3423E+02
  12.878  0.1336E+01  0.3425E+02
  12.888  0.1333E+01  0.3426E+02
  12.898  0.1330E+01  0.3427E+02
  12.908  0.1328E+01  0.3429E+02
  12.918  0.1325E+01  0.3430E+02
  12.928  0.1323E+01  0.3431E+02
  12.938  0.1320E+01  0.3433E+02
  12.948  0.1318E+01  0.3434E+02
  12.958  0.1316E+01  0.3435E+02
  12.968  0.1314E+01  0.3437E+02
  12.978  0.1312E+01  0.3438E+02
  12.988  0.1311E+01  0.3439E+02
  12.998  0.1309E+01  0.3441E+02
  13.008  0.1308E+01  0.3442E+02
  13.018  0.1306E+01  0.3443E+02
  13.028  0.1305E+01  0.3444E+02
  13.038  0.1304E+01  0.3446E+02
  13.048  0.1302E+01  0.3447E+02
  13.058  0.1301E+01  0.3448E+02
  13.068  0.1300E+01  0.3450E+02
  13.078  0.1299E+01  0.3451E+02
  13.088  0.1299E+01  0.3452E+02
  13.098  0.1298E+01  0.3454E+02
  13.108  0.1297E+01  0.3455E+02
  13.118  0.1296E+01  0.3456E+02
  13.128  0.1296E+01  0.3457E+02
  13.138  0.1295E+01  0.3459E+02
  13.148  0.1295E+01  0.3460E+02
  13.158  0.1294E+01  0.3461E+02
  13.168  0.1294E+01  0.3463E+02
  13.178  0.1293E+01  0.3464E+02
  13.188  0.1293E+01  0.3465E+02
  13.198  0.1293E+01  0.3467E+02
  13.208  0.1292E+01  0.3468E+02
  13.218  0.1292E+01  0.3469E+02
  13.228  0.1292E+01  0.3470E+02
  13.238  0.1291E+01  0.3472E+02
  13.248  0.1291E+01  0.3473E+02
  13.258  0.1291E+01  0.3474E+02
  13.268  0.1291E+01  0.3476E+02
  13.278  0.1290E+01  0.3477E+02
  13.288  0.1290E+01  0.3478E+02
  13.298  0.1290E+01  0.3479E+02
  13.308  0.1289E+01  0.3481E+02
  13.318  0.1289E+01  0.3482E+02
  13.328  0.1289E+01  0.3483E+02
  13.338  0.1288E+01  0.3485E+02
  13.348  0.1288E+01  0.3486E+02
  13.358  0.1287E+01  0.3487E+02
  13.368  0.1287E+01  0.3488E+02
  13.378  0.1286E+01  0.3490E+02
  13.388  0.1286E+01  0.3491E+02
  13.398  0.1285E+01  0.3492E+02
  13.408  0.1285E+01  0.3494E+02
  13.418  0.1284E+01  0.3495E+02
  13.428  0.1284E+01  0.3496E+02
  13.438  0.1283E+01  0.3497E+02
  13.448  0.1282E+01  0.3499E+02
  13.458  0.1282E+01  0.3500E+02
  13.468  0.1281E+01  0.3501E+02
  13.478  0.1280E+01  0.3503E+02
  13.488  0.1279E+01  0.3504E+02
  13.498  0.1278E+01  0.3505E+02
  13.508  0.1278E+01  0.3506E+02
  13.518  0.1277E+01  0.3508E+02
  13.528  0.1276E+01  0.3509E+02
  13.538  0.1275E+01  0.3510E+02
  13.548  0.1274E+01  0.3511E+02
  13.558  0.1273E+01  0.3513E+02
  13.568  0.1272E+01  0.3514E+02
  13.578  0.1271E+01  0.3515E+02
  13.588  0.1270E+01  0.3517E+02
  13.598  0.1269E+01  0.3518E+02
  13.608  0.1268E+01  0.3519E+02
  13.618  0.1267E+01  0.3520E+02
  13.628  0.1266E+01  0.3522E+02
  13.638  0.1265E+01  0.3523E+02
  13.648  0.1265E+01  0.3524E+02
  13.658  0.1264E+01  0.3525E+02
  13.668  0.1263E+01  0.3527E+02
  13.678  0.1262E+01  0.3528E+02
  13.688  0.1261E+01  0.3529E+02
  13.698  0.1260E+01  0.3530E+02
  13.708  0.1260E+01  0.3532E+02
  13.718  0.1259E+01  0.3533E+02
  13.728  0.1258E+01  0.3534E+02
  13.738  0.1258E+01  0.3536E+02
  13.748  0.1257E+01  0.3537E+02
  13.758  0.1257E+01  0.3538E+02
  13.768  0.1256E+01  0.3539E+02
  13.778  0.1256E+01  0.3541E+02
  13.788  0.1256E+01  0.3542E+02
  13.798  0.1256E+01  0.3543E+02
  13.808  0.1255E+01  0.3544E+02
  13.818  0.1255E+01  0.3546E+02
  13.828  0.1255E+01  0.3547E+02
  13.838  0.1255E+01  0.3548E+02
  13.848  0.1256E+01  0.3549E+02
  13.858  0.1256E+01  0.3551E+02
  13.868  0.1256E+01  0.3552E+02
  13.878  0.1257E+01  0.3553E+02
  13.888  0.1257E+01  0.3554E+02
  13.898  0.1258E+01  0.3556E+02
  13.908  0.1259E+01  0.3557E+02
  13.918  0.1260E+01  0.3558E+02
  13.928  0.1260E+01  0.3559E+02
  13.938  0.1261E+01  0.3561E+02
  13.948  0.1263E+01  0.3562E+02
  13.958  0.1264E+01  0.3563E+02
  13.968  0.1265E+01  0.3564E+02
  13.978  0.1267E+01  0.3566E+02
  13.988  0.1268E+01  0.3567E+02
  13.998  0.1270E+01  0.3568E+02
  14.008  0.1271E+01  0.3570E+02
  14.018  0.1273E+01  0.3571E+02
  14.028  0.1275E+01  0.3572E+02
  14.038  0.1277E+01  0.3573E+02
  14.048  0.1279E+01  0.3575E+02
  14.058  0.1281E+01  0.3576E+02
  14.068  0.1284E+01  0.3577E+02
  14.078  0.1286E+01  0.3578E+02
  14.088  0.1289E+01  0.3580E+02
  14.098  0.1291E+01  0.3581E+02
  14.108  0.1294E+01  0.3582E+02
  14.118  0.1297E+01  0.3584E+02
  14.128  0.1299E+01  0.3585E+02
  14.138  0.1302E+01  0.3586E+02
  14.148  0.1305E+01  0.3588E+02
  14.158  0.1308E+01  0.3589E+02
  14.168  0.1311E+01  0.3590E+02
  14.178  0.1315E+01  0.3591E+02
  14.188  0.1318E+01  0.3593E+02
  14.198  0.1321E+01  0.3594E+02
  14.208  0.1325E+01  0.3595E+02
  14.218  0.1328E+01  0.3597E+02
  14.228  0.1332E+01  0.3598E+02
  14.238  0.1335E+01  0.3599E+02
  14.248  0.1339E+01  0.3601E+02
  14.258  0.1343E+01  0.3602E+02
  14.268  0.1347E+01  0.3603E+02
  14.278  0.1351E+01  0.3605E+02
  14.288  0.1355E+01  0.3606E+02
  14.298  0.1359E+01  0.3608E+02
  14.308  0.1363E+01  0.3609E+02
  14.318  0.1367E+01  0.3610E+02
  14.328  0.1371E+01  0.3612E+02
  14.338  0.1375E+01  0.3613E+02
  14.348  0.1379E+01  0.3614E+02
  14.358  0.1384E+01  0.3616E+02
  14.368  0.1388E+01  0.3617E+02
  14.378  0.1392E+01  0.3619E+02
  14.388  0.1397E+01  0.3620E+02
  14.398  0.1401E+01  0.3621E+02
  14.408  0.1406E+01  0.3623E+02
  14.418  0.1411E+01  0.3624E+02
  14.428  0.1415E+01  0.3626E+02
  14.438  0.1420E+01  0.3627E+02
  14.448  0.1425E+01  0.3628E+02
  14.458  0.1429E+01  0.3630E+02
  14.468  0.1434E+01  0.3631E+02
  14.478  0.1439E+01  0.3633E+02
  14.488  0.1444E+01  0.3634E+02
  14.498  0.1449E+01  0.3636E+02
  14.508  0.1454E+01  0.3637E+02
  14.518  0.1459E+01  0.3639E+02
  14.528  0.1464E+01  0.3640E+02
  14.538  0.1469E+01  0.3641E+02
  14.548  0.1474E+01  0.3643E+02
  14.558  0.1480E+01  0.3644E+02
  14.568  0.1485E+01  0.3646E+02
  14.578  0.1490E+01  0.3647E+02
  14.588  0.1495E+01  0.3649E+02
  14.598  0.1501E+01  0.3650E+02
  14.608  0.1506E+01  0.3652E+02
  14.618  0.1511E+01  0.3653E+02
  14.628  0.1517E+01  0.3655E+02
  14.638  0.1522E+01  0.3656E+02
  14.648  0.1528E+01  0.3658E+02
  14.658  0.1533E+01  0.3660E+02
  14.668  0.1539E+01  0.3661E+02
  14.678  0.1544E+01  0.3663E+02
  14.688  0.1550E+01  0.3664E+02
  14.698  0.1555E+01  0.3666E+02
  14.708  0.1561E+01  0.3667E+02
  14.718  0.1566E+01  0.3669E+02
  14.728  0.1572E+01  0.3670E+02
  14.738  0.1577E+01  0.3672E+02
  14.748  0.1583E+01  0.3674E+02
  14.758  0.1588E+01  0.3675E+02
  14.768  0.1593E+01  0.3677E+02
  14.778  0.1599E+01  0.3678E+02
  14.788  0.1604E+01  0.3680E+02
  14.798  0.1610E+01  0.3682E+02
  14.808  0.1615E+01  0.3683E+02
  14.818  0.1620E+01  0.3685E+02
  14.828  0.1625E+01  0.3686E+02
  14.838  0.1631E+01  0.3688E+02
  14.848  0.1636E+01  0.3690E+02
  14.858  0.1641E+01  0.3691E+02
  14.868  0.1646E+01  0.3693E+02
  14.878  0.1651E+01  0.3695E+02
  14.888  0.1656E+01  0.3696E+02
  14.898  0.1660E+01  0.3698E+02
  14.908  0.1665E+01  0.3700E+02
  14.918  0.1670E+01  0.3701E+02
  14.928  0.1674E+01  0.3703E+02
  14.938  0.1679E+01  0.3705E+02
  14.948  0.1683E+01  0.3706E+02
  14.958  0.1687E+01  0.3708E+02
  14.968  0.1691E+01  0.3710E+02
  14.978  0.1695E+01  0.3711E+02
  14.988  0.1699E+01  0.3713E+02
  14.998  0.1703E+01  0.3715E+02
  15.008  0.1706E+01  0.3717E+02
  15.018  0.1710E+01  0.3718E+02
  15.028  0.1713E+01  0.3720E+02
  15.038  0.1716E+01  0.3722E+02
  15.048  0.1719E+01  0.3723E+02
  15.058  0.1722E+01  0.3725E+02
  15.068  0.1725E+01  0.3727E+02
  15.078  0.1728E+01  0.3729E+02
  15.088  0.1730E+01  0.3730E+02
  15.098  0.1732E+01  0.3732E+02
  15.108  0.1734E+01  0.3734E+02
  15.118  0.1737E+01  0.3735E+02
  15.128  0.1738E+01  0.3737E+02
  15.138  0.1740E+01  0.3739E+02
  15.148  0.1742E+01  0.3741E+02
  15.158  0.1743E+01  0.3742E+02
  15.168  0.1744E+01  0.3744E+02
  15.178  0.1745E+01  0.3746E+02
  15.188  0.1746E+01  0.3748E+02
  15.198  0.1747E+01  0.3749E+02
  15.208  0.1748E+01  0.3751E+02
  15.218  0.1748E+01  0.3753E+02
  15.228  0.1749E+01  0.3755E+02
  15.238  0.1749E+01  0.3756E+02
  15.248  0.1749E+01  0.3758E+02
  15.258  0.1749E+01  0.3760E+02
  15.268  0.1749E+01  0.3762E+02
  15.278  0.1749E+01  0.3763E+02
  15.288  0.1748E+01  0.3765E+02
  15.298  0.1748E+01  0.3767E+02
  15.308  0.1747E+01  0.3769E+02
  15.318  0.1746E+01  0.3770E+02
  15.328  0.1746E+01  0.3772E+02
  15.338  0.1745E+01  0.3774E+02
  15.348  0.1744E+01  0.3776E+02
  15.358  0.1743E+01  0.3777E+02
  15.368  0.1741E+01  0.3779E+02
  15.378  0.1740E+01  0.3781E+02
  15.388  0.1739E+01  0.3783E+02
  15.398  0.1737E+01  0.3784E+02
  15.408  0.1736E+01  0.3786E+02
  15.418  0.1734E+01  0.3788E+02
  15.428  0.1733E+01  0.3790E+02
  15.438  0.1731E+01  0.3791E+02
  15.448  0.1730E+01  0.3793E+02
  15.458  0.1728E+01  0.3795E+02
  15.468  0.1726E+01  0.3796E+02
  15.478  0.1725E+01  0.3798E+02
  15.488  0.1723E+01  0.3800E+02
  15.498  0.1721E+01  0.3802E+02
  15.508  0.1720E+01  0.3803E+02
  15.518  0.1718E+01  0.3805E+02
  15.528  0.1716E+01  0.3807E+02
  15.538  0.1715E+01  0.3808E+02
  15.548  0.1713E+01  0.3810E+02
  15.558  0.1711E+01  0.3812E+02
  15.568  0.1710E+01  0.3814E+02
  15.578  0.1708E+01  0.3815E+02
  15.588  0.1707E+01  0.3817E+02
  15.598  0.1705E+01  0.3819E+02
  15.608  0.1704E+01  0.3820E+02
  15.618  0.1703E+01  0.3822E+02
  15.628  0.1702E+01  0.3824E+02
  15.638  0.1700E+01  0.3826E+02
  15.648  0.1699E+01  0.3827E+02
  15.658  0.1698E+01  0.3829E+02
  15.668  0.1697E+01  0.3831E+02
  15.678  0.1697E+01  0.3832E+02
  15.688  0.1696E+01  0.3834E+02
  15.698  0.1695E+01  0.3836E+02
  15.708  0.1695E+01  0.3837E+02
  15.718  0.1694E+01  0.3839E+02
  15.728  0.1694E+01  0.3841E+02
  15.738  0.1694E+01  0.3843E+02
  15.748  0.1693E+01  0.3844E+02
  15.758  0.1693E+01  0.3846E+02
  15.768  0.1693E+01  0.3848E+02
  15.778  0.1694E+01  0.3849E+02
  15.788  0.1694E+01  0.3851E+02
  15.798  0.1694E+01  0.3853E+02
  15.808  0.1695E+01  0.3854E+02
  15.818  0.1695E+01  0.3856E+02
  15.828  0.1696E+01  0.3858E+02
  15.838  0.1697E+01  0.3859E+02
  15.848  0.1697E+01  0.3861E+02
  15.858  0.1698E+01  0.3863E+02
  15.868  0.1699E+01  0.3865E+02
  15.878  0.1700E+01  0.3866E+02
  15.888  0.1702E+01  0.3868E+02
  15.898  0.1703E+01  0.3870E+02
  15.908  0.1704E+01  0.3871E+02
  15.918  0.1706E+01  0.3873E+02
  15.928  0.1707E+01  0.3875E+02
  15.938  0.1709E+01  0.3876E+02
  15.948  0.1711E+01  0.3878E+02
  15.958  0.1712E+01  0.3880E+02
  15.968  0.1714E+01  0.3882E+02
  15.978  0.1716E+01  0.3883E+02
  15.988  0.1718E+01  0.3885E+02
  15.998  0.1720E+01  0.3887E+02
  16.008  0.1722E+01  0.3888E+02
  16.018  0.1724E+01  0.3890E+02
  16.028  0.1727E+01  0.3892E+02
  16.038  0.1729E+01  0.3894E+02
  16.048  0.1731E+01  0.3895E+02
  16.058  0.1733E+01  0.3897E+02
  16.068  0.1736E+01  0.3899E+02
  16.078  0.1738E+01  0.3901E+02
  16.088  0.1740E+01  0.3902E+02
  16.098  0.1743E+01  0.3904E+02
  16.108  0.1745E+01  0.3906E+02
  16.118  0.1748E+01  0.3908E+02
  16.128  0.1750E+01  0.3909E+02
  16.138  0.1753E+01  0.3911E+02
  16.148  0.1755E+01  0.3913E+02
  16.158  0.1758E+01  0.3915E+02
  16.168  0.1760E+01  0.3916E+02
  16.178  0.1763E+01  0.3918E+02
  16.188  0.1765E+01  0.3920E+02
  16.198  0.1768E+01  0.3922E+02
  16.208  0.1770E+01  0.3923E+02
  16.218  0.1773E+01  0.3925E+02
  16.228  0.1775E+01  0.3927E+02
  16.238  0.1777E+01  0.3929E+02
  16.248  0.1780E+01  0.3931E+02
  16.258  0.1782E+01  0.3932E+02
  16.268  0.1785E+01  0.3934E+02
  16.278  0.1787E+01  0.3936E+02
  16.288  0.1789E+01  0.3938E+02
  16.298  0.1792E+01  0.3939E+02
  16.308  0.1794E+01  0.3941E+02
  16.318  0.1797E+01  0.3943E+02
  16.328  0.1799E+01  0.3945E+02
  16.338  0.1801E+01  0.3947E+02
  16.348  0.1803E+01  0.3948E+02
  16.358  0.1806E+01  0.3950E+02
  16.368  0.1808E+01  0.3952E+02
  16.378  0.1810E+01  0.3954E+02
  16.388  0.1812E+01  0.3956E+02
  16.398  0.1814E+01  0.3958E+02
  16.408  0.1816E+01  0.3959E+02
  16.418  0.1819E+01  0.3961E+02
  16.428  0.1821E+01  0.3963E+02
  16.438  0.1823E+01  0.3965E+02
  16.448  0.1825E+01  0.3967E+02
  16.458  0.1827E+01  0.3968E+02
  16.468  0.1829E+01  0.3970E+02
  16.478  0.1831E+01  0.3972E+02
  16.488  0.1833E+01  0.3974E+02
  16.498  0.1835E+01  0.3976E+02
  16.508  0.1837E+01  0.3978E+02
  16.518  0.1839E+01  0.3979E+02
  16.528  0.1840E+01  0.3981E+02
  16.538  0.1842E+01  0.3983E+02
  16.548  0.1844E+01  0.3985E+02
  16.558  0.1846E+01  0.3987E+02
  16.568  0.1848E+01  0.3989E+02
  16.578  0.1850E+01  0.3991E+02
  16.588  0.1851E+01  0.3992E+02
  16.598  0.1853E+01  0.3994E+02
  16.608  0.1855E+01  0.3996E+02
  16.618  0.1857E+01  0.3998E+02
  16.628  0.1858E+01  0.4000E+02
  16.638  0.1860E+01  0.4002E+02
  16.648  0.1862E+01  0.4004E+02
  16.658  0.1863E+01  0.4005E+02
  16.668  0.1865E+01  0.4007E+02
  16.678  0.1867E+01  0.4009E+02
  16.688  0.1868E+01  0.4011E+02
  16.698  0.1870E+01  0.4013E+02
  16.708  0.1872E+01  0.4015E+02
  16.718  0.1873E+01  0.4017E+02
  16.728  0.1875E+01  0.4018E+02
  16.738  0.1876E+01  0.4020E+02
  16.748  0.1878E+01  0.4022E+02
  16.758  0.1879E+01  0.4024E+02
  16.768  0.1881E+01  0.4026E+02
  16.778  0.1882E+01  0.4028E+02
  16.788  0.1884E+01  0.4030E+02
  16.798  0.1885E+01  0.4032E+02
  16.808  0.1887E+01  0.4034E+02
  16.818  0.1888E+01  0.4035E+02
  16.828  0.1889E+01  0.4037E+02
  16.838  0.1891E+01  0.4039E+02
  16.848  0.1892E+01  0.4041E+02
  16.858  0.1894E+01  0.4043E+02
  16.868  0.1895E+01  0.4045E+02
  16.878  0.1896E+01  0.4047E+02
  16.888  0.1898E+01  0.4049E+02
  16.898  0.1899E+01  0.4051E+02
  16.908  0.1900E+01  0.4052E+02
  16.918  0.1902E+01  0.4054E+02
  16.928  0.1903E+01  0.4056E+02
  16.938  0.1904E+01  0.4058E+02
  16.948  0.1906E+01  0.4060E+02
  16.958  0.1907E+01  0.4062E+02
  16.968  0.1908E+01  0.4064E+02
  16.978  0.1909E+01  0.4066E+02
  16.988  0.1911E+01  0.4068E+02
  16.998  0.1912E+01  0.4070E+02
  17.008  0.1913E+01  0.4072E+02
  17.018  0.1915E+01  0.4073E+02
  17.028  0.1916E+01  0.4075E+02
  17.038  0.1917E+01  0.4077E+02
  17.048  0.1919E+01  0.4079E+02
  17.058  0.1920E+01  0.4081E+02
  17.068  0.1922E+01  0.4083E+02
  17.078  0.1923E+01  0.4085E+02
  17.088  0.1924E+01  0.4087E+02
  17.098  0.1926E+01  0.4089E+02
  17.108  0.1927E+01  0.4091E+02
  17.118  0.1929E+01  0.4093E+02
  17.128  0.1930E+01  0.4095E+02
  17.138  0.1932E+01  0.4097E+02
  17.148  0.1933E+01  0.4098E+02
  17.158  0.1935E+01  0.4100E+02
  17.168  0.1937E+01  0.4102E+02
  17.178  0.1938E+01  0.4104E+02
  17.188  0.1940E+01  0.4106E+02
  17.198  0.1942E+01  0.4108E+02
  17.208  0.1943E+01  0.4110E+02
  17.218  0.1945E+01  0.4112E+02
  17.228  0.1947E+01  0.4114E+02
  17.238  0.1949E+01  0.4116E+02
  17.248  0.1950E+01  0.4118E+02
  17.258  0.1952E+01  0.4120E+02
  17.268  0.1954E+01  0.4122E+02
  17.278  0.1956E+01  0.4124E+02
  17.288  0.1958E+01  0.4126E+02
  17.298  0.1960E+01  0.4128E+02
  17.308  0.1962E+01  0.4130E+02
  17.318  0.1964E+01  0.4132E+02
  17.328  0.1966E+01  0.4134E+02
  17.338  0.1968E+01  0.4136E+02
  17.348  0.1970E+01  0.4137E+02
  17.358  0.1972E+01  0.4139E+02
  17.368  0.1974E+01  0.4141E+02
  17.378  0.1976E+01  0.4143E+02
  17.388  0.1978E+01  0.4145E+02
  17.398  0.1980E+01  0.4147E+02
  17.408  0.1982E+01  0.4149E+02
  17.418  0.1984E+01  0.4151E+02
  17.428  0.1986E+01  0.4153E+02
  17.438  0.1988E+01  0.4155E+02
  17.448  0.1990E+01  0.4157E+02
  17.458  0.1992E+01  0.4159E+02
  17.468  0.1994E+01  0.4161E+02
  17.478  0.1996E+01  0.4163E+02
  17.488  0.1998E+01  0.4165E+02
  17.498  0.1999E+01  0.4167E+02
  17.508  0.2001E+01  0.4169E+02
  17.518  0.2003E+01  0.4171E+02
  17.528  0.2004E+01  0.4173E+02
  17.538  0.2006E+01  0.4175E+02
  17.548  0.2008E+01  0.4177E+02
  17.558  0.2009E+01  0.4179E+02
  17.568  0.2010E+01  0.4181E+02
  17.578  0.2012E+01  0.4183E+02
  17.588  0.2013E+01  0.4185E+02
  17.598  0.2014E+01  0.4187E+02
  17.608  0.2015E+01  0.4189E+02
  17.618  0.2016E+01  0.4191E+02
  17.628  0.2017E+01  0.4193E+02
  17.638  0.2017E+01  0.4195E+02
  17.648  0.2018E+01  0.4197E+02
  17.658  0.2018E+01  0.4199E+02
  17.668  0.2019E+01  0.4201E+02
  17.678  0.2019E+01  0.4204E+02
  17.688  0.2019E+01  0.4206E+02
  17.698  0.2019E+01  0.4208E+02
  17.708  0.2019E+01  0.4210E+02
  17.718  0.2019E+01  0.4212E+02
  17.728  0.2019E+01  0.4214E+02
  17.738  0.2018E+01  0.4216E+02
  17.748  0.2018E+01  0.4218E+02
  17.758  0.2017E+01  0.4220E+02
  17.768  0.2016E+01  0.4222E+02
  17.778  0.2015E+01  0.4224E+02
  17.788  0.2014E+01  0.4226E+02
  17.798  0.2013E+01  0.4228E+02
  17.808  0.2011E+01  0.4230E+02
  17.818  0.2010E+01  0.4232E+02
  17.828  0.2008E+01  0.4234E+02
  17.838  0.2006E+01  0.4236E+02
  17.848  0.2005E+01  0.4238E+02
  17.858  0.2003E+01  0.4240E+02
  17.868  0.2001E+01  0.4242E+02
  17.878  0.1998E+01  0.4244E+02
  17.888  0.1996E+01  0.4246E+02
  17.898  0.1993E+01  0.4248E+02
  17.908  0.1991E+01  0.4250E+02
  17.918  0.1988E+01  0.4252E+02
  17.928  0.1985E+01  0.4254E+02
  17.938  0.1983E+01  0.4256E+02
  17.948  0.1980E+01  0.4258E+02
  17.958  0.1977E+01  0.4260E+02
  17.968  0.1973E+01  0.4262E+02
  17.978  0.1970E+01  0.4264E+02
  17.988  0.1967E+01  0.4266E+02
  17.998  0.1963E+01  0.4268E+02
  18.008  0.1960E+01  0.4269E+02
  18.018  0.1957E+01  0.4271E+02
  18.028  0.1953E+01  0.4273E+02
  18.038  0.1949E+01  0.4275E+02
  18.048  0.1946E+01  0.4277E+02
  18.058  0.1942E+01  0.4279E+02
  18.068  0.1938E+01  0.4281E+02
  18.078  0.1934E+01  0.4283E+02
  18.088  0.1931E+01  0.4285E+02
  18.098  0.1927E+01  0.4287E+02
  18.108  0.1923E+01  0.4289E+02
  18.118  0.1919E+01  0.4291E+02
  18.128  0.1915E+01  0.4293E+02
  18.138  0.1911E+01  0.4295E+02
  18.148  0.1907E+01  0.4297E+02
  18.158  0.1904E+01  0.4298E+02
  18.168  0.1900E+01  0.4300E+02
  18.178  0.1896E+01  0.4302E+02
  18.188  0.1892E+01  0.4304E+02
  18.198  0.1889E+01  0.4306E+02
  18.208  0.1885E+01  0.4308E+02
  18.218  0.1881E+01  0.4310E+02
  18.228  0.1878E+01  0.4312E+02
  18.238  0.1874E+01  0.4314E+02
  18.248  0.1870E+01  0.4315E+02
  18.258  0.1867E+01  0.4317E+02
  18.268  0.1864E+01  0.4319E+02
  18.278  0.1860E+01  0.4321E+02
  18.288  0.1857E+01  0.4323E+02
  18.298  0.1854E+01  0.4325E+02
  18.308  0.1851E+01  0.4327E+02
  18.318  0.1848E+01  0.4328E+02
  18.328  0.1845E+01  0.4330E+02
  18.338  0.1842E+01  0.4332E+02
  18.348  0.1839E+01  0.4334E+02
  18.358  0.1837E+01  0.4336E+02
  18.368  0.1834E+01  0.4338E+02
  18.378  0.1831E+01  0.4339E+02
  18.388  0.1829E+01  0.4341E+02
  18.398  0.1827E+01  0.4343E+02
  18.408  0.1825E+01  0.4345E+02
  18.418  0.1822E+01  0.4347E+02
  18.428  0.1820E+01  0.4349E+02
  18.438  0.1818E+01  0.4350E+02
  18.448  0.1816E+01  0.4352E+02
  18.458  0.1815E+01  0.4354E+02
  18.468  0.1813E+01  0.4356E+02
  18.478  0.1811E+01  0.4358E+02
  18.488  0.1810E+01  0.4359E+02
  18.498  0.1808E+01  0.4361E+02
  18.508  0.1807E+01  0.4363E+02
  18.518  0.1806E+01  0.4365E+02
  18.528  0.1804E+01  0.4367E+02
  18.538  0.1803E+01  0.4368E+02
  18.548  0.1802E+01  0.4370E+02
  18.558  0.1801E+01  0.4372E+02
  18.568  0.1800E+01  0.4374E+02
  18.578  0.1799E+01  0.4376E+02
  18.588  0.1798E+01  0.4377E+02
  18.598  0.1797E+01  0.4379E+02
  18.608  0.1796E+01  0.4381E+02
  18.618  0.1795E+01  0.4383E+02
  18.628  0.1794E+01  0.4385E+02
  18.638  0.1793E+01  0.4386E+02
  18.648  0.1793E+01  0.4388E+02
  18.658  0.1792E+01  0.4390E+02
  18.668  0.1791E+01  0.4392E+02
  18.678  0.1790E+01  0.4394E+02
  18.688  0.1789E+01  0.4395E+02
  18.698  0.1788E+01  0.4397E+02
  18.708  0.1787E+01  0.4399E+02
  18.718  0.1786E+01  0.4401E+02
  18.728  0.1785E+01  0.4403E+02
  18.738  0.1784E+01  0.4404E+02
  18.748  0.1782E+01  0.4406E+02
  18.758  0.1781E+01  0.4408E+02
  18.768  0.1780E+01  0.4410E+02
  18.778  0.1778E+01  0.4411E+02
  18.788  0.1776E+01  0.4413E+02
  18.798  0.1775E+01  0.4415E+02
  18.808  0.1773E+01  0.4417E+02
  18.818  0.1771E+01  0.4419E+02
  18.828  0.1769E+01  0.4420E+02
  18.838  0.1766E+01  0.4422E+02
  18.848  0.1764E+01  0.4424E+02
  18.858  0.1762E+01  0.4426E+02
  18.868  0.1759E+01  0.4427E+02
  18.878  0.1756E+01  0.4429E+02
  18.888  0.1753E+01  0.4431E+02
  18.898  0.1750E+01  0.4433E+02
  18.908  0.1747E+01  0.4434E+02
  18.918  0.1743E+01  0.4436E+02
  18.928  0.1740E+01  0.4438E+02
  18.938  0.1736E+01  0.4440E+02
  18.948  0.1732E+01  0.4441E+02
  18.958  0.1728E+01  0.4443E+02
  18.968  0.1723E+01  0.4445E+02
  18.978  0.1719E+01  0.4446E+02
  18.988  0.1714E+01  0.4448E+02
  18.998  0.1709E+01  0.4450E+02
  19.008  0.1704E+01  0.4452E+02
  19.018  0.1699E+01  0.4453E+02
  19.028  0.1693E+01  0.4455E+02
  19.038  0.1688E+01  0.4457E+02
  19.048  0.1682E+01  0.4458E+02
  19.058  0.1676E+01  0.4460E+02
  19.068  0.1670E+01  0.4462E+02
  19.078  0.1664E+01  0.4463E+02
  19.088  0.1658E+01  0.4465E+02
  19.098  0.1651E+01  0.4467E+02
  19.108  0.1645E+01  0.4468E+02
  19.118  0.1638E+01  0.4470E+02
  19.128  0.1631E+01  0.4472E+02
  19.138  0.1624E+01  0.4473E+02
  19.148  0.1617E+01  0.4475E+02
  19.158  0.1610E+01  0.4476E+02
  19.168  0.1603E+01  0.4478E+02
  19.178  0.1596E+01  0.4480E+02
  19.188  0.1589E+01  0.4481E+02
  19.198  0.1581E+01  0.4483E+02
  19.208  0.1574E+01  0.4484E+02
  19.218  0.1567E+01  0.4486E+02
  19.228  0.1559E+01  0.4488E+02
  19.238  0.1552E+01  0.4489E+02
  19.248  0.1545E+01  0.4491E+02
  19.258  0.1537E+01  0.4492E+02
  19.268  0.1530E+01  0.4494E+02
  19.278  0.1523E+01  0.4495E+02
  19.288  0.1516E+01  0.4497E+02
  19.298  0.1509E+01  0.4498E+02
  19.308  0.1502E+01  0.4500E+02
  19.318  0.1495E+01  0.4501E+02
  19.328  0.1489E+01  0.4503E+02
  19.338  0.1483E+01  0.4504E+02
  19.348  0.1476E+01  0.4506E+02
  19.358  0.1470E+01  0.4507E+02
  19.368  0.1464E+01  0.4509E+02
  19.378  0.1459E+01  0.4510E+02
  19.388  0.1453E+01  0.4512E+02
  19.398  0.1448E+01  0.4513E+02
  19.408  0.1443E+01  0.4514E+02
  19.418  0.1439E+01  0.4516E+02
  19.428  0.1434E+01  0.4517E+02
  19.438  0.1430E+01  0.4519E+02
  19.448  0.1426E+01  0.4520E+02
  19.458  0.1423E+01  0.4522E+02
  19.468  0.1420E+01  0.4523E+02
  19.478  0.1417E+01  0.4524E+02
  19.488  0.1415E+01  0.4526E+02
  19.498  0.1413E+01  0.4527E+02
  19.508  0.1411E+01  0.4529E+02
  19.518  0.1410E+01  0.4530E+02
  19.528  0.1409E+01  0.4531E+02
  19.538  0.1409E+01  0.4533E+02
  19.548  0.1409E+01  0.4534E+02
  19.558  0.1409E+01  0.4536E+02
  19.568  0.1410E+01  0.4537E+02
  19.578  0.1411E+01  0.4539E+02
  19.588  0.1413E+01  0.4540E+02
  19.598  0.1415E+01  0.4541E+02
  19.608  0.1417E+01  0.4543E+02
  19.618  0.1420E+01  0.4544E+02
  19.628  0.1424E+01  0.4546E+02
  19.638  0.1427E+01  0.4547E+02
  19.648  0.1432E+01  0.4548E+02
  19.658  0.1436E+01  0.4550E+02
  19.668  0.1441E+01  0.4551E+02
  19.678  0.1447E+01  0.4553E+02
  19.688  0.1453E+01  0.4554E+02
  19.698  0.1459E+01  0.4556E+02
  19.708  0.1466E+01  0.4557E+02
  19.718  0.1473E+01  0.4559E+02
  19.728  0.1481E+01  0.4560E+02
  19.738  0.1489E+01  0.4562E+02
  19.748  0.1497E+01  0.4563E+02
  19.758  0.1506E+01  0.4565E+02
  19.768  0.1515E+01  0.4566E+02
  19.778  0.1525E+01  0.4568E+02
  19.788  0.1534E+01  0.4569E+02
  19.798  0.1544E+01  0.4571E+02
  19.808  0.1555E+01  0.4572E+02
  19.818  0.1566E+01  0.4574E+02
  19.828  0.1577E+01  0.4575E+02
  19.838  0.1588E+01  0.4577E+02
  19.848  0.1599E+01  0.4579E+02
  19.858  0.1611E+01  0.4580E+02
  19.868  0.1623E+01  0.4582E+02
  19.878  0.1635E+01  0.4583E+02
  19.888  0.1648E+01  0.4585E+02
  19.898  0.1660E+01  0.4587E+02
  19.908  0.1673E+01  0.4588E+02
  19.918  0.1686E+01  0.4590E+02
  19.928  0.1699E+01  0.4592E+02
  19.938  0.1712E+01  0.4594E+02
  19.948  0.1725E+01  0.4595E+02
  19.958  0.1738E+01  0.4597E+02
  19.968  0.1751E+01  0.4599E+02
  19.978  0.1764E+01  0.4601E+02
  19.988  0.1778E+01  0.4602E+02
  19.998  0.1791E+01  0.4604E+02
  20.008  0.1804E+01  0.4606E+02
  20.018  0.1817E+01  0.4608E+02
  20.028  0.1830E+01  0.4610E+02
  20.038  0.1843E+01  0.4611E+02
  20.048  0.1856E+01  0.4613E+02
  20.058  0.1869E+01  0.4615E+02
  20.068  0.1881E+01  0.4617E+02
  20.078  0.1894E+01  0.4619E+02
  20.088  0.1906E+01  0.4621E+02
  20.098  0.1918E+01  0.4623E+02
  20.108  0.1930E+01  0.4625E+02
  20.118  0.1942E+01  0.4627E+02
  20.128  0.1954E+01  0.4629E+02
  20.138  0.1965E+01  0.4631E+02
  20.148  0.1976E+01  0.4632E+02
  20.158  0.1987E+01  0.4634E+02
  20.168  0.1997E+01  0.4636E+02
  20.178  0.2007E+01  0.4638E+02
  20.188  0.2017E+01  0.4641E+02
  20.198  0.2027E+01  0.4643E+02
  20.208  0.2036E+01  0.4645E+02
  20.218  0.2045E+01  0.4647E+02
  20.228  0.2054E+01  0.4649E+02
  20.238  0.2063E+01  0.4651E+02
  20.248  0.2071E+01  0.4653E+02
  20.258  0.2078E+01  0.4655E+02
  20.268  0.2086E+01  0.4657E+02
  20.278  0.2093E+01  0.4659E+02
  20.288  0.2100E+01  0.4661E+02
  20.298  0.2106E+01  0.4663E+02
  20.308  0.2112E+01  0.4665E+02
  20.318  0.2118E+01  0.4667E+02
  20.328  0.2123E+01  0.4670E+02
  20.338  0.2128E+01  0.4672E+02
  20.348  0.2133E+01  0.4674E+02
  20.358  0.2137E+01  0.4676E+02
  20.368  0.2141E+01  0.4678E+02
  20.378  0.2145E+01  0.4680E+02
  20.388  0.2148E+01  0.4682E+02
  20.398  0.2151E+01  0.4685E+02
  20.408  0.2154E+01  0.4687E+02
  20.418  0.2156E+01  0.4689E+02
  20.428  0.2159E+01  0.4691E+02
  20.438  0.2160E+01  0.4693E+02
  20.448  0.2162E+01  0.4695E+02
  20.458  0.2163E+01  0.4698E+02
  20.468  0.2164E+01  0.4700E+02
  20.478  0.2165E+01  0.4702E+02
  20.488  0.2166E+01  0.4704E+02
  20.498  0.2166E+01  0.4706E+02
  20.508  0.2166E+01  0.4708E+02
  20.518  0.2166E+01  0.4711E+02
  20.528  0.2166E+01  0.4713E+02
  20.538  0.2165E+01  0.4715E+02
  20.548  0.2164E+01  0.4717E+02
  20.558  0.2163E+01  0.4719E+02
  20.568  0.2162E+01  0.4721E+02
  20.578  0.2161E+01  0.4724E+02
  20.588  0.2160E+01  0.4726E+02
  20.598  0.2158E+01  0.4728E+02
  20.608  0.2156E+01  0.4730E+02
  20.618  0.2155E+01  0.4732E+02
  20.628  0.2153E+01  0.4734E+02
  20.638  0.2151E+01  0.4736E+02
  20.648  0.2149E+01  0.4739E+02
  20.658  0.2146E+01  0.4741E+02
  20.668  0.2144E+01  0.4743E+02
  20.678  0.2142E+01  0.4745E+02
  20.688  0.2140E+01  0.4747E+02
  20.698  0.2137E+01  0.4749E+02
  20.708  0.2135E+01  0.4751E+02
  20.718  0.2132E+01  0.4754E+02
  20.728  0.2130E+01  0.4756E+02
  20.738  0.2128E+01  0.4758E+02
  20.748  0.2125E+01  0.4760E+02
  20.758  0.2123E+01  0.4762E+02
  20.768  0.2120E+01  0.4764E+02
  20.778  0.2118E+01  0.4766E+02
  20.788  0.2116E+01  0.4768E+02
  20.798  0.2113E+01  0.4771E+02
  20.808  0.2111E+01  0.4773E+02
  20.818  0.2109E+01  0.4775E+02
  20.828  0.2107E+01  0.4777E+02
  20.838  0.2105E+01  0.4779E+02
  20.848  0.2102E+01  0.4781E+02
  20.858  0.2100E+01  0.4783E+02
  20.868  0.2098E+01  0.4785E+02
  20.878  0.2097E+01  0.4787E+02
  20.888  0.2095E+01  0.4789E+02
  20.898  0.2093E+01  0.4792E+02
  20.908  0.2091E+01  0.4794E+02
  20.918  0.2090E+01  0.4796E+02
  20.928  0.2088E+01  0.4798E+02
  20.938  0.2087E+01  0.4800E+02
  20.948  0.2085E+01  0.4802E+02
  20.958  0.2084E+01  0.4804E+02
  20.968  0.2083E+01  0.4806E+02
  20.978  0.2082E+01  0.4808E+02
  20.988  0.2081E+01  0.4810E+02
  20.998  0.2080E+01  0.4812E+02
  21.008  0.2079E+01  0.4815E+02
  21.018  0.2078E+01  0.4817E+02
  21.028  0.2077E+01  0.4819E+02
  21.038  0.2077E+01  0.4821E+02
  21.048  0.2076E+01  0.4823E+02
  21.058  0.2076E+01  0.4825E+02
  21.068  0.2075E+01  0.4827E+02
  21.078  0.2075E+01  0.4829E+02
  21.088  0.2074E+01  0.4831E+02
  21.098  0.2074E+01  0.4833E+02
  21.108  0.2074E+01  0.4835E+02
  21.118  0.2074E+01  0.4837E+02
  21.128  0.2074E+01  0.4839E+02
  21.138  0.2074E+01  0.4841E+02
  21.148  0.2074E+01  0.4844E+02
  21.158  0.2074E+01  0.4846E+02
  21.168  0.2074E+01  0.4848E+02
  21.178  0.2074E+01  0.4850E+02
  21.188  0.2075E+01  0.4852E+02
  21.198  0.2075E+01  0.4854E+02
  21.208  0.2075E+01  0.4856E+02
  21.218  0.2076E+01  0.4858E+02
  21.228  0.2076E+01  0.4860E+02
  21.238  0.2077E+01  0.4862E+02
  21.248  0.2077E+01  0.4864E+02
  21.258  0.2078E+01  0.4866E+02
  21.268  0.2078E+01  0.4868E+02
  21.278  0.2079E+01  0.4871E+02
  21.288  0.2079E+01  0.4873E+02
  21.298  0.2080E+01  0.4875E+02
  21.308  0.2081E+01  0.4877E+02
  21.318  0.2082E+01  0.4879E+02
  21.328  0.2082E+01  0.4881E+02
  21.338  0.2083E+01  0.4883E+02
  21.348  0.2084E+01  0.4885E+02
  21.358  0.2085E+01  0.4887E+02
  21.368  0.2086E+01  0.4889E+02
  21.378  0.2087E+01  0.4891E+02
  21.388  0.2088E+01  0.4893E+02
  21.398  0.2089E+01  0.4896E+02
  21.408  0.2090E+01  0.4898E+02
  21.418  0.2091E+01  0.4900E+02
  21.428  0.2092E+01  0.4902E+02
  21.438  0.2093E+01  0.4904E+02
  21.448  0.2094E+01  0.4906E+02
  21.458  0.2095E+01  0.4908E+02
  21.468  0.2097E+01  0.4910E+02
  21.478  0.2098E+01  0.4912E+02
  21.488  0.2099E+01  0.4914E+02
  21.498  0.2101E+01  0.4917E+02
  21.508  0.2102E+01  0.4919E+02
  21.518  0.2103E+01  0.4921E+02
  21.528  0.2105E+01  0.4923E+02
  21.538  0.2106E+01  0.4925E+02
  21.548  0.2108E+01  0.4927E+02
  21.558  0.2110E+01  0.4929E+02
  21.568  0.2111E+01  0.4931E+02
  21.578  0.2113E+01  0.4933E+02
  21.588  0.2115E+01  0.4935E+02
  21.598  0.2117E+01  0.4938E+02
  21.608  0.2119E+01  0.4940E+02
  21.618  0.2121E+01  0.4942E+02
  21.628  0.2123E+01  0.4944E+02
  21.638  0.2125E+01  0.4946E+02
  21.648  0.2127E+01  0.4948E+02
  21.658  0.2129E+01  0.4950E+02
  21.668  0.2132E+01  0.4952E+02
  21.678  0.2134E+01  0.4955E+02
  21.688  0.2137E+01  0.4957E+02
  21.698  0.2139E+01  0.4959E+02
  21.708  0.2142E+01  0.4961E+02
  21.718  0.2144E+01  0.4963E+02
  21.728  0.2147E+01  0.4965E+02
  21.738  0.2150E+01  0.4967E+02
  21.748  0.2153E+01  0.4970E+02
  21.758  0.2156E+01  0.4972E+02
  21.768  0.2159E+01  0.4974E+02
  21.778  0.2162E+01  0.4976E+02
  21.788  0.2165E+01  0.4978E+02
  21.798  0.2169E+01  0.4980E+02
  21.808  0.2172E+01  0.4983E+02
  21.818  0.2175E+01  0.4985E+02
  21.828  0.2179E+01  0.4987E+02
  21.838  0.2183E+01  0.4989E+02
  21.848  0.2186E+01  0.4991E+02
  21.858  0.2190E+01  0.4994E+02
  21.868  0.2194E+01  0.4996E+02
  21.878  0.2197E+01  0.4998E+02
  21.888  0.2201E+01  0.5000E+02
  21.898  0.2205E+01  0.5002E+02
  21.908  0.2209E+01  0.5005E+02
  21.918  0.2213E+01  0.5007E+02
  21.928  0.2217E+01  0.5009E+02
  21.938  0.2222E+01  0.5011E+02
  21.948  0.2226E+01  0.5013E+02
  21.958  0.2230E+01  0.5016E+02
  21.968  0.2234E+01  0.5018E+02
  21.978  0.2239E+01  0.5020E+02
  21.988  0.2243E+01  0.5022E+02
  21.998  0.2247E+01  0.5025E+02
  22.008  0.2252E+01  0.5027E+02
  22.018  0.2256E+01  0.5029E+02
  22.028  0.2260E+01  0.5031E+02
  22.038  0.2265E+01  0.5034E+02
  22.048  0.2269E+01  0.5036E+02
  22.058  0.2273E+01  0.5038E+02
  22.068  0.2278E+01  0.5040E+02
  22.078  0.2282E+01  0.5043E+02
  22.088  0.2286E+01  0.5045E+02
  22.098  0.2291E+01  0.5047E+02
  22.108  0.2295E+01  0.5050E+02
  22.118  0.2299E+01  0.5052E+02
  22.128  0.2303E+01  0.5054E+02
  22.138  0.2307E+01  0.5057E+02
  22.148  0.2311E+01  0.5059E+02
  22.158  0.2315E+01  0.5061E+02
  22.168  0.2319E+01  0.5063E+02
  22.178  0.2323E+01  0.5066E+02
  22.188  0.2327E+01  0.5068E+02
  22.198  0.2331E+01  0.5070E+02
  22.208  0.2334E+01  0.5073E+02
  22.218  0.2338E+01  0.5075E+02
  22.228  0.2341E+01  0.5077E+02
  22.238  0.2345E+01  0.5080E+02
  22.248  0.2348E+01  0.5082E+02
  22.258  0.2351E+01  0.5084E+02
  22.268  0.2354E+01  0.5087E+02
  22.278  0.2357E+01  0.5089E+02
  22.288  0.2359E+01  0.5092E+02
  22.298  0.2362E+01  0.5094E+02
  22.308  0.2365E+01  0.5096E+02
  22.318  0.2367E+01  0.5099E+02
  22.328  0.2369E+01  0.5101E+02
  22.338  0.2371E+01  0.5103E+02
  22.348  0.2373E+01  0.5106E+02
  22.358  0.2375E+01  0.5108E+02
  22.368  0.2377E+01  0.5111E+02
  22.378  0.2378E+01  0.5113E+02
  22.388  0.2380E+01  0.5115E+02
  22.398  0.2381E+01  0.5118E+02
  22.408  0.2382E+01  0.5120E+02
  22.418  0.2383E+01  0.5122E+02
  22.428  0.2384E+01  0.5125E+02
  22.438  0.2385E+01  0.5127E+02
  22.448  0.2385E+01  0.5130E+02
  22.458  0.2385E+01  0.5132E+02
  22.468  0.2386E+01  0.5134E+02
  22.478  0.2386E+01  0.5137E+02
  22.488  0.2386E+01  0.5139E+02
  22.498  0.2385E+01  0.5142E+02
  22.508  0.2385E+01  0.5144E+02
  22.518  0.2385E+01  0.5146E+02
  22.528  0.2384E+01  0.5149E+02
  22.538  0.2383E+01  0.5151E+02
  22.548  0.2382E+01  0.5153E+02
  22.558  0.2381E+01  0.5156E+02
  22.568  0.2380E+01  0.5158E+02
  22.578  0.2379E+01  0.5161E+02
  22.588  0.2377E+01  0.5163E+02
  22.598  0.2375E+01  0.5165E+02
  22.608  0.2374E+01  0.5168E+02
  22.618  0.2372E+01  0.5170E+02
  22.628  0.2370E+01  0.5172E+02
  22.638  0.2368E+01  0.5175E+02
  22.648  0.2366E+01  0.5177E+02
  22.658  0.2363E+01  0.5180E+02
  22.668  0.2361E+01  0.5182E+02
  22.678  0.2358E+01  0.5184E+02
  22.688  0.2356E+01  0.5187E+02
  22.698  0.2353E+01  0.5189E+02
  22.708  0.2350E+01  0.5191E+02
  22.718  0.2347E+01  0.5194E+02
  22.728  0.2344E+01  0.5196E+02
  22.738  0.2341E+01  0.5198E+02
  22.748  0.2338E+01  0.5201E+02
  22.758  0.2335E+01  0.5203E+02
  22.768  0.2331E+01  0.5205E+02
  22.778  0.2328E+01  0.5208E+02
  22.788  0.2324E+01  0.5210E+02
  22.798  0.2320E+01  0.5212E+02
  22.808  0.2317E+01  0.5215E+02
  22.818  0.2313E+01  0.5217E+02
  22.828  0.2309E+01  0.5219E+02
  22.838  0.2305E+01  0.5222E+02
  22.848  0.2301E+01  0.5224E+02
  22.858  0.2297E+01  0.5226E+02
  22.868  0.2293E+01  0.5228E+02
  22.878  0.2288E+01  0.5231E+02
  22.888  0.2284E+01  0.5233E+02
  22.898  0.2280E+01  0.5235E+02
  22.908  0.2275E+01  0.5238E+02
  22.918  0.2271E+01  0.5240E+02
  22.928  0.2266E+01  0.5242E+02
  22.938  0.2262E+01  0.5244E+02
  22.948  0.2257E+01  0.5247E+02
  22.958  0.2252E+01  0.5249E+02
  22.968  0.2247E+01  0.5251E+02
  22.978  0.2242E+01  0.5253E+02
  22.988  0.2238E+01  0.5256E+02
  22.998  0.2233E+01  0.5258E+02
  23.008  0.2228E+01  0.5260E+02
  23.018  0.2222E+01  0.5262E+02
  23.028  0.2217E+01  0.5265E+02
  23.038  0.2212E+01  0.5267E+02
  23.048  0.2207E+01  0.5269E+02
  23.058  0.2202E+01  0.5271E+02
  23.068  0.2196E+01  0.5273E+02
  23.078  0.2191E+01  0.5276E+02
  23.088  0.2185E+01  0.5278E+02
  23.098  0.2180E+01  0.5280E+02
  23.108  0.2174E+01  0.5282E+02
  23.118  0.2169E+01  0.5284E+02
  23.128  0.2163E+01  0.5286E+02
  23.138  0.2157E+01  0.5289E+02
  23.148  0.2152E+01  0.5291E+02
  23.158  0.2146E+01  0.5293E+02
  23.168  0.2140E+01  0.5295E+02
  23.178  0.2134E+01  0.5297E+02
  23.188  0.2128E+01  0.5299E+02
  23.198  0.2123E+01  0.5301E+02
  23.208  0.2117E+01  0.5303E+02
  23.218  0.2111E+01  0.5306E+02
  23.228  0.2105E+01  0.5308E+02
  23.238  0.2099E+01  0.5310E+02
  23.248  0.2093E+01  0.5312E+02
  23.258  0.2087E+01  0.5314E+02
  23.268  0.2081E+01  0.5316E+02
  23.278  0.2075E+01  0.5318E+02
  23.288  0.2069E+01  0.5320E+02
  23.298  0.2063E+01  0.5322E+02
  23.308  0.2057E+01  0.5324E+02
  23.318  0.2051E+01  0.5326E+02
  23.328  0.2045E+01  0.5328E+02
  23.338  0.2039E+01  0.5330E+02
  23.348  0.2033E+01  0.5332E+02
  23.358  0.2027E+01  0.5335E+02
  23.368  0.2021E+01  0.5337E+02
  23.378  0.2015E+01  0.5339E+02
  23.388  0.2009E+01  0.5341E+02
  23.398  0.2004E+01  0.5343E+02
  23.408  0.1998E+01  0.5345E+02
  23.418  0.1992E+01  0.5347E+02
  23.428  0.1987E+01  0.5349E+02
  23.438  0.1981E+01  0.5351E+02
  23.448  0.1975E+01  0.5352E+02
  23.458  0.1970E+01  0.5354E+02
  23.468  0.1965E+01  0.5356E+02
  23.478  0.1959E+01  0.5358E+02
  23.488  0.1954E+01  0.5360E+02
  23.498  0.1949E+01  0.5362E+02
  23.508  0.1944E+01  0.5364E+02
  23.518  0.1939E+01  0.5366E+02
  23.528  0.1934E+01  0.5368E+02
  23.538  0.1930E+01  0.5370E+02
  23.548  0.1925E+01  0.5372E+02
  23.558  0.1921E+01  0.5374E+02
  23.568  0.1916E+01  0.5376E+02
  23.578  0.1912E+01  0.5378E+02
  23.588  0.1908E+01  0.5380E+02
  23.598  0.1904E+01  0.5382E+02
  23.608  0.1900E+01  0.5383E+02
  23.618  0.1897E+01  0.5385E+02
  23.628  0.1893E+01  0.5387E+02
  23.638  0.1890E+01  0.5389E+02
  23.648  0.1887E+01  0.5391E+02
  23.658  0.1883E+01  0.5393E+02
  23.668  0.1881E+01  0.5395E+02
  23.678  0.1878E+01  0.5397E+02
  23.688  0.1875E+01  0.5399E+02
  23.698  0.1873E+01  0.5400E+02
  23.708  0.1871E+01  0.5402E+02
  23.718  0.1869E+01  0.5404E+02
  23.728  0.1867E+01  0.5406E+02
  23.738  0.1865E+01  0.5408E+02
  23.748  0.1863E+01  0.5410E+02
  23.758  0.1862E+01  0.5412E+02
  23.768  0.1861E+01  0.5413E+02
  23.778  0.1860E+01  0.5415E+02
  23.788  0.1859E+01  0.5417E+02
  23.798  0.1859E+01  0.5419E+02
  23.808  0.1858E+01  0.5421E+02
  23.818  0.1858E+01  0.5423E+02
  23.828  0.1858E+01  0.5425E+02
  23.838  0.1858E+01  0.5426E+02
  23.848  0.1859E+01  0.5428E+02
  23.858  0.1859E+01  0.5430E+02
  23.868  0.1860E+01  0.5432E+02
  23.878  0.1861E+01  0.5434E+02
  23.888  0.1862E+01  0.5436E+02
  23.898  0.1863E+01  0.5438E+02
  23.908  0.1865E+01  0.5439E+02
  23.918  0.1867E+01  0.5441E+02
  23.928  0.1868E+01  0.5443E+02
  23.938  0.1870E+01  0.5445E+02
  23.948  0.1873E+01  0.5447E+02
  23.958  0.1875E+01  0.5449E+02
  23.968  0.1878E+01  0.5451E+02
  23.978  0.1881E+01  0.5453E+02
  23.988  0.1883E+01  0.5454E+02
  23.998  0.1887E+01  0.5456E+02
  24.008  0.1890E+01  0.5458E+02
  24.018  0.1893E+01  0.5460E+02
  24.028  0.1897E+01  0.5462E+02
  24.038  0.1901E+01  0.5464E+02
  24.048  0.1905E+01  0.5466E+02
  24.058  0.1909E+01  0.5468E+02
  24.068  0.1913E+01  0.5470E+02
  24.078  0.1917E+01  0.5472E+02
  24.088  0.1922E+01  0.5474E+02
  24.098  0.1926E+01  0.5475E+02
  24.108  0.1931E+01  0.5477E+02
  24.118  0.1936E+01  0.5479E+02
  24.128  0.1940E+01  0.5481E+02
  24.138  0.1945E+01  0.5483E+02
  24.148  0.1951E+01  0.5485E+02
  24.158  0.1956E+01  0.5487E+02
  24.168  0.1961E+01  0.5489E+02
  24.178  0.1966E+01  0.5491E+02
  24.188  0.1972E+01  0.5493E+02
  24.198  0.1977E+01  0.5495E+02
  24.208  0.1983E+01  0.5497E+02
  24.218  0.1989E+01  0.5499E+02
  24.228  0.1994E+01  0.5501E+02
  24.238  0.2000E+01  0.5503E+02
  24.248  0.2006E+01  0.5505E+02
  24.258  0.2011E+01  0.5507E+02
  24.268  0.2017E+01  0.5509E+02
  24.278  0.2023E+01  0.5511E+02
  24.288  0.2029E+01  0.5513E+02
  24.298  0.2035E+01  0.5515E+02
  24.308  0.2041E+01  0.5517E+02
  24.318  0.2046E+01  0.5519E+02
  24.328  0.2052E+01  0.5521E+02
  24.338  0.2058E+01  0.5523E+02
  24.348  0.2064E+01  0.5525E+02
  24.358  0.2070E+01  0.5527E+02
  24.368  0.2075E+01  0.5529E+02
  24.378  0.2081E+01  0.5532E+02
  24.388  0.2087E+01  0.5534E+02
  24.398  0.2092E+01  0.5536E+02
  24.408  0.2098E+01  0.5538E+02
  24.418  0.2103E+01  0.5540E+02
  24.428  0.2109E+01  0.5542E+02
  24.438  0.2114E+01  0.5544E+02
  24.448  0.2120E+01  0.5546E+02
  24.458  0.2125E+01  0.5548E+02
  24.468  0.2130E+01  0.5551E+02
  24.478  0.2135E+01  0.5553E+02
  24.488  0.2140E+01  0.5555E+02
  24.498  0.2145E+01  0.5557E+02
  24.508  0.2150E+01  0.5559E+02
  24.518  0.2155E+01  0.5561E+02
  24.528  0.2160E+01  0.5563E+02
  24.538  0.2165E+01  0.5566E+02
  24.548  0.2169E+01  0.5568E+02
  24.558  0.2174E+01  0.5570E+02
  24.568  0.2179E+01  0.5572E+02
  24.578  0.2183E+01  0.5574E+02
  24.588  0.2187E+01  0.5576E+02
  24.598  0.2192E+01  0.5579E+02
  24.608  0.2196E+01  0.5581E+02
  24.618  0.2200E+01  0.5583E+02
  24.628  0.2204E+01  0.5585E+02
  24.638  0.2208E+01  0.5587E+02
  24.648  0.2212E+01  0.5590E+02
  24.658  0.2216E+01  0.5592E+02
  24.668  0.2220E+01  0.5594E+02
  24.678  0.2224E+01  0.5596E+02
  24.688  0.2227E+01  0.5599E+02
  24.698  0.2231E+01  0.5601E+02
  24.708  0.2235E+01  0.5603E+02
  24.718  0.2238E+01  0.5605E+02
  24.728  0.2242E+01  0.5608E+02
  24.738  0.2246E+01  0.5610E+02
  24.748  0.2249E+01  0.5612E+02
  24.758  0.2253E+01  0.5614E+02
  24.768  0.2256E+01  0.5617E+02
  24.778  0.2260E+01  0.5619E+02
  24.788  0.2263E+01  0.5621E+02
  24.798  0.2267E+01  0.5623E+02
  24.808  0.2270E+01  0.5626E+02
  24.818  0.2274E+01  0.5628E+02
  24.828  0.2277E+01  0.5630E+02
  24.838  0.2281E+01  0.5632E+02
  24.848  0.2284E+01  0.5635E+02
  24.858  0.2288E+01  0.5637E+02
  24.868  0.2291E+01  0.5639E+02
  24.878  0.2295E+01  0.5642E+02
  24.888  0.2298E+01  0.5644E+02
  24.898  0.2302E+01  0.5646E+02
  24.908  0.2306E+01  0.5648E+02
  24.918  0.2309E+01  0.5651E+02
  24.928  0.2313E+01  0.5653E+02
  24.938  0.2317E+01  0.5655E+02
  24.948  0.2320E+01  0.5658E+02
  24.958  0.2324E+01  0.5660E+02
  24.968  0.2328E+01  0.5662E+02
  24.978  0.2332E+01  0.5665E+02
  24.988  0.2336E+01  0.5667E+02
  24.998  0.2340E+01  0.5669E+02
  25.008  0.2344E+01  0.5672E+02
  25.018  0.2348E+01  0.5674E+02
  25.028  0.2352E+01  0.5676E+02
  25.038  0.2356E+01  0.5679E+02
  25.048  0.2360E+01  0.5681E+02
  25.058  0.2364E+01  0.5684E+02
  25.068  0.2368E+01  0.5686E+02
  25.078  0.2372E+01  0.5688E+02
  25.088  0.2376E+01  0.5691E+02
  25.098  0.2380E+01  0.5693E+02
  25.108  0.2385E+01  0.5695E+02
  25.118  0.2389E+01  0.5698E+02
  25.128  0.2393E+01  0.5700E+02
  25.138  0.2397E+01  0.5703E+02
  25.148  0.2402E+01  0.5705E+02
  25.158  0.2406E+01  0.5707E+02
  25.168  0.2410E+01  0.5710E+02
  25.178  0.2414E+01  0.5712E+02
  25.188  0.2418E+01  0.5715E+02
  25.198  0.2423E+01  0.5717E+02
  25.208  0.2427E+01  0.5719E+02
  25.218  0.2431E+01  0.5722E+02
  25.228  0.2435E+01  0.5724E+02
  25.238  0.2439E+01  0.5727E+02
  25.248  0.2443E+01  0.5729E+02
  25.258  0.2447E+01  0.5732E+02
  25.268  0.2451E+01  0.5734E+02
  25.278  0.2455E+01  0.5737E+02
  25.288  0.2459E+01  0.5739E+02
  25.298  0.2463E+01  0.5741E+02
  25.308  0.2466E+01  0.5744E+02
  25.318  0.2470E+01  0.5746E+02
  25.328  0.2474E+01  0.5749E+02
  25.338  0.2477E+01  0.5751E+02
  25.348  0.2481E+01  0.5754E+02
  25.358  0.2484E+01  0.5756E+02
  25.368  0.2487E+01  0.5759E+02
  25.378  0.2490E+01  0.5761E+02
  25.388  0.2494E+01  0.5764E+02
  25.398  0.2497E+01  0.5766E+02
  25.408  0.2500E+01  0.5769E+02
  25.418  0.2503E+01  0.5771E+02
  25.428  0.2505E+01  0.5774E+02
  25.438  0.2508E+01  0.5776E+02
  25.448  0.2511E+01  0.5779E+02
  25.458  0.2513E+01  0.5781E+02
  25.468  0.2516E+01  0.5784E+02
  25.478  0.2518E+01  0.5786E+02
  25.488  0.2520E+01  0.5789E+02
  25.498  0.2522E+01  0.5791E+02
  25.508  0.2524E+01  0.5794E+02
  25.518  0.2526E+01  0.5796E+02
  25.528  0.2528E+01  0.5799E+02
  25.538  0.2530E+01  0.5802E+02
  25.548  0.2532E+01  0.5804E+02
  25.558  0.2533E+01  0.5807E+02
  25.568  0.2535E+01  0.5809E+02
  25.578  0.2536E+01  0.5812E+02
  25.588  0.2538E+01  0.5814E+02
  25.598  0.2539E+01  0.5817E+02
  25.608  0.2540E+01  0.5819E+02
  25.618  0.2541E+01  0.5822E+02
  25.628  0.2542E+01  0.5824E+02
  25.638  0.2543E+01  0.5827E+02
  25.648  0.2544E+01  0.5829E+02
  25.658  0.2545E+01  0.5832E+02
  25.668  0.2546E+01  0.5835E+02
  25.678  0.2547E+01  0.5837E+02
  25.688  0.2547E+01  0.5840E+02
  25.698  0.2548E+01  0.5842E+02
  25.708  0.2548E+01  0.5845E+02
  25.718  0.2549E+01  0.5847E+02
  25.728  0.2549E+01  0.5850E+02
  25.738  0.2550E+01  0.5852E+02
  25.748  0.2550E+01  0.5855E+02
  25.758  0.2550E+01  0.5857E+02
  25.768  0.2551E+01  0.5860E+02
  25.778  0.2551E+01  0.5863E+02
  25.788  0.2551E+01  0.5865E+02
  25.798  0.2551E+01  0.5868E+02
  25.808  0.2551E+01  0.5870E+02
  25.818  0.2551E+01  0.5873E+02
  25.828  0.2551E+01  0.5875E+02
  25.838  0.2551E+01  0.5878E+02
  25.848  0.2551E+01  0.5880E+02
  25.858  0.2550E+01  0.5883E+02
  25.868  0.2550E+01  0.5886E+02
  25.878  0.2550E+01  0.5888E+02
  25.888  0.2550E+01  0.5891E+02
  25.898  0.2549E+01  0.5893E+02
  25.908  0.2549E+01  0.5896E+02
  25.918  0.2549E+01  0.5898E+02
  25.928  0.2548E+01  0.5901E+02
  25.938  0.2548E+01  0.5903E+02
  25.948  0.2547E+01  0.5906E+02
  25.958  0.2547E+01  0.5908E+02
  25.968  0.2546E+01  0.5911E+02
  25.978  0.2546E+01  0.5914E+02
  25.988  0.2545E+01  0.5916E+02
  25.998  0.2545E+01  0.5919E+02
  26.008  0.2544E+01  0.5921E+02
  26.018  0.2543E+01  0.5924E+02
  26.028  0.2542E+01  0.5926E+02
  26.038  0.2542E+01  0.5929E+02
  26.048  0.2541E+01  0.5931E+02
  26.058  0.2540E+01  0.5934E+02
  26.068  0.2539E+01  0.5936E+02
  26.078  0.2538E+01  0.5939E+02
  26.088  0.2538E+01  0.5942E+02
  26.098  0.2537E+01  0.5944E+02
  26.108  0.2536E+01  0.5947E+02
  26.118  0.2535E+01  0.5949E+02
  26.128  0.2534E+01  0.5952E+02
  26.138  0.2533E+01  0.5954E+02
  26.148  0.2532E+01  0.5957E+02
  26.158  0.2531E+01  0.5959E+02
  26.168  0.2530E+01  0.5962E+02
  26.178  0.2529E+01  0.5964E+02
  26.188  0.2527E+01  0.5967E+02
  26.198  0.2526E+01  0.5969E+02
  26.208  0.2525E+01  0.5972E+02
  26.218  0.2524E+01  0.5974E+02
  26.228  0.2523E+01  0.5977E+02
  26.238  0.2522E+01  0.5979E+02
  26.248  0.2521E+01  0.5982E+02
  26.258  0.2520E+01  0.5985E+02
  26.268  0.2519E+01  0.5987E+02
  26.278  0.2518E+01  0.5990E+02
  26.288  0.2516E+01  0.5992E+02
  26.298  0.2515E+01  0.5995E+02
  26.308  0.2514E+01  0.5997E+02
  26.318  0.2513E+01  0.6000E+02
  26.328  0.2512E+01  0.6002E+02
  26.338  0.2511E+01  0.6005E+02
  26.348  0.2510E+01  0.6007E+02
  26.358  0.2509E+01  0.6010E+02
  26.368  0.2508E+01  0.6012E+02
  26.378  0.2507E+01  0.6015E+02
  26.388  0.2507E+01  0.6017E+02
  26.398  0.2506E+01  0.6020E+02
  26.408  0.2505E+01  0.6022E+02
  26.418  0.2504E+01  0.6025E+02
  26.428  0.2504E+01  0.6027E+02
  26.438  0.2503E+01  0.6030E+02
  26.448  0.2502E+01  0.6032E+02
  26.458  0.2502E+01  0.6035E+02
  26.468  0.2501E+01  0.6037E+02
  26.478  0.2501E+01  0.6040E+02
  26.488  0.2501E+01  0.6042E+02
  26.498  0.2500E+01  0.6045E+02
  26.508  0.2500E+01  0.6047E+02
  26.518  0.2500E+01  0.6050E+02
  26.528  0.2500E+01  0.6052E+02
  26.538  0.2500E+01  0.6055E+02
  26.548  0.2500E+01  0.6057E+02
  26.558  0.2500E+01  0.6060E+02
  26.568  0.2500E+01  0.6062E+02
  26.578  0.2500E+01  0.6065E+02
  26.588  0.2500E+01  0.6067E+02
  26.598  0.2500E+01  0.6070E+02
  26.608  0.2501E+01  0.6072E+02
  26.618  0.2501E+01  0.6075E+02
  26.628  0.2502E+01  0.6077E+02
  26.638  0.2502E+01  0.6080E+02
  26.648  0.2503E+01  0.6082E+02
  26.658  0.2503E+01  0.6085E+02
  26.668  0.2504E+01  0.6087E+02
  26.678  0.2505E+01  0.6090E+02
  26.688  0.2506E+01  0.6092E+02
  26.698  0.2507E+01  0.6095E+02
  26.708  0.2507E+01  0.6097E+02
  26.718  0.2508E+01  0.6100E+02
  26.728  0.2509E+01  0.6102E+02
  26.738  0.2510E+01  0.6105E+02
  26.748  0.2511E+01  0.6107E+02
  26.758  0.2513E+01  0.6110E+02
  26.768  0.2514E+01  0.6112E+02
  26.778  0.2515E+01  0.6115E+02
  26.788  0.2516E+01  0.6117E+02
  26.798  0.2517E+01  0.6120E+02
  26.808  0.2519E+01  0.6122E+02
  26.818  0.2520E+01  0.6125E+02
  26.828  0.2521E+01  0.6127E+02
  26.838  0.2523E+01  0.6130E+02
  26.848  0.2524E+01  0.6132E+02
  26.858  0.2525E+01  0.6135E+02
  26.868  0.2527E+01  0.6138E+02
  26.878  0.2528E+01  0.6140E+02
  26.888  0.2529E+01  0.6143E+02
  26.898  0.2531E+01  0.6145E+02
  26.908  0.2532E+01  0.6148E+02
  26.918  0.2534E+01  0.6150E+02
  26.928  0.2535E+01  0.6153E+02
  26.938  0.2536E+01  0.6155E+02
  26.948  0.2538E+01  0.6158E+02
  26.958  0.2539E+01  0.6160E+02
  26.968  0.2540E+01  0.6163E+02
  26.978  0.2542E+01  0.6165E+02
  26.988  0.2543E+01  0.6168E+02
  26.998  0.2544E+01  0.6170E+02
  27.008  0.2546E+01  0.6173E+02
  27.018  0.2547E+01  0.6176E+02
  27.028  0.2548E+01  0.6178E+02
  27.038  0.2549E+01  0.6181E+02
  27.048  0.2551E+01  0.6183E+02
  27.058  0.2552E+01  0.6186E+02
  27.068  0.2553E+01  0.6188E+02
  27.078  0.2554E+01  0.6191E+02
  27.088  0.2555E+01  0.6193E+02
  27.098  0.2556E+01  0.6196E+02
  27.108  0.2558E+01  0.6199E+02
  27.118  0.2559E+01  0.6201E+02
  27.128  0.2560E+01  0.6204E+02
  27.138  0.2561E+01  0.6206E+02
  27.148  0.2562E+01  0.6209E+02
  27.158  0.2563E+01  0.6211E+02
  27.168  0.2564E+01  0.6214E+02
  27.178  0.2565E+01  0.6217E+02
  27.188  0.2566E+01  0.6219E+02
  27.198  0.2567E+01  0.6222E+02
  27.208  0.2568E+01  0.6224E+02
  27.218  0.2569E+01  0.6227E+02
  27.228  0.2570E+01  0.6229E+02
  27.238  0.2571E+01  0.6232E+02
  27.248  0.2572E+01  0.6234E+02
  27.258  0.2573E+01  0.6237E+02
  27.268  0.2574E+01  0.6240E+02
  27.278  0.2575E+01  0.6242E+02
  27.288  0.2577E+01  0.6245E+02
  27.298  0.2578E+01  0.6247E+02
  27.308  0.2579E+01  0.6250E+02
  27.318  0.2580E+01  0.6253E+02
  27.328  0.2581E+01  0.6255E+02
  27.338  0.2583E+01  0.6258E+02
  27.348  0.2584E+01  0.6260E+02
  27.358  0.2586E+01  0.6263E+02
  27.368  0.2587E+01  0.6265E+02
  27.378  0.2589E+01  0.6268E+02
  27.388  0.2590E+01  0.6271E+02
  27.398  0.2592E+01  0.6273E+02
  27.408  0.2594E+01  0.6276E+02
  27.418  0.2595E+01  0.6278E+02
  27.428  0.2597E+01  0.6281E+02
  27.438  0.2599E+01  0.6284E+02
  27.448  0.2601E+01  0.6286E+02
  27.458  0.2603E+01  0.6289E+02
  27.468  0.2606E+01  0.6291E+02
  27.478  0.2608E+01  0.6294E+02
  27.488  0.2610E+01  0.6297E+02
  27.498  0.2613E+01  0.6299E+02
  27.508  0.2615E+01  0.6302E+02
  27.518  0.2618E+01  0.6304E+02
  27.528  0.2621E+01  0.6307E+02
  27.538  0.2624E+01  0.6310E+02
  27.548  0.2627E+01  0.6312E+02
  27.558  0.2630E+01  0.6315E+02
  27.568  0.2633E+01  0.6318E+02
  27.578  0.2636E+01  0.6320E+02
  27.588  0.2640E+01  0.6323E+02
  27.598  0.2643E+01  0.6326E+02
  27.608  0.2647E+01  0.6328E+02
  27.618  0.2650E+01  0.6331E+02
  27.628  0.2654E+01  0.6333E+02
  27.638  0.2658E+01  0.6336E+02
  27.648  0.2662E+01  0.6339E+02
  27.658  0.2666E+01  0.6341E+02
  27.668  0.2670E+01  0.6344E+02
  27.678  0.2674E+01  0.6347E+02
  27.688  0.2678E+01  0.6349E+02
  27.698  0.2682E+01  0.6352E+02
  27.708  0.2687E+01  0.6355E+02
  27.718  0.2691E+01  0.6358E+02
  27.728  0.2695E+01  0.6360E+02
  27.738  0.2700E+01  0.6363E+02
  27.748  0.2704E+01  0.6366E+02
  27.758  0.2709E+01  0.6368E+02
  27.768  0.2713E+01  0.6371E+02
  27.778  0.2718E+01  0.6374E+02
  27.788  0.2722E+01  0.6377E+02
  27.798  0.2727E+01  0.6379E+02
  27.808  0.2731E+01  0.6382E+02
  27.818  0.2736E+01  0.6385E+02
  27.828  0.2740E+01  0.6387E+02
  27.838  0.2744E+01  0.6390E+02
  27.848  0.2749E+01  0.6393E+02
  27.858  0.2753E+01  0.6396E+02
  27.868  0.2757E+01  0.6398E+02
  27.878  0.2761E+01  0.6401E+02
  27.888  0.2765E+01  0.6404E+02
  27.898  0.2769E+01  0.6407E+02
  27.908  0.2773E+01  0.6410E+02
  27.918  0.2776E+01  0.6412E+02
  27.928  0.2780E+01  0.6415E+02
  27.938  0.2783E+01  0.6418E+02
  27.948  0.2786E+01  0.6421E+02
  27.958  0.2789E+01  0.6423E+02
  27.968  0.2792E+01  0.6426E+02
  27.978  0.2795E+01  0.6429E+02
  27.988  0.2797E+01  0.6432E+02
  27.998  0.2800E+01  0.6435E+02
  28.008  0.2802E+01  0.6437E+02
  28.018  0.2804E+01  0.6440E+02
  28.028  0.2805E+01  0.6443E+02
  28.038  0.2807E+01  0.6446E+02
  28.048  0.2808E+01  0.6449E+02
  28.058  0.2809E+01  0.6451E+02
  28.068  0.2810E+01  0.6454E+02
  28.078  0.2810E+01  0.6457E+02
  28.088  0.2811E+01  0.6460E+02
  28.098  0.2810E+01  0.6463E+02
  28.108  0.2810E+01  0.6465E+02
  28.118  0.2810E+01  0.6468E+02
  28.128  0.2809E+01  0.6471E+02
  28.138  0.2808E+01  0.6474E+02
  28.148  0.2806E+01  0.6477E+02
  28.158  0.2805E+01  0.6480E+02
  28.168  0.2803E+01  0.6482E+02
  28.178  0.2801E+01  0.6485E+02
  28.188  0.2798E+01  0.6488E+02
  28.198  0.2796E+01  0.6491E+02
  28.208  0.2793E+01  0.6494E+02
  28.218  0.2789E+01  0.6496E+02
  28.228  0.2786E+01  0.6499E+02
  28.238  0.2782E+01  0.6502E+02
  28.248  0.2778E+01  0.6505E+02
  28.258  0.2774E+01  0.6507E+02
  28.268  0.2769E+01  0.6510E+02
  28.278  0.2765E+01  0.6513E+02
  28.288  0.2760E+01  0.6516E+02
  28.298  0.2754E+01  0.6518E+02
  28.308  0.2749E+01  0.6521E+02
  28.318  0.2743E+01  0.6524E+02
  28.328  0.2737E+01  0.6527E+02
  28.338  0.2731E+01  0.6529E+02
  28.348  0.2725E+01  0.6532E+02
  28.358  0.2719E+01  0.6535E+02
  28.368  0.2712E+01  0.6538E+02
  28.378  0.2705E+01  0.6540E+02
  28.388  0.2699E+01  0.6543E+02
  28.398  0.2691E+01  0.6546E+02
  28.408  0.2684E+01  0.6548E+02
  28.418  0.2677E+01  0.6551E+02
  28.428  0.2670E+01  0.6554E+02
  28.438  0.2662E+01  0.6556E+02
  28.448  0.2654E+01  0.6559E+02
  28.458  0.2647E+01  0.6562E+02
  28.468  0.2639E+01  0.6564E+02
  28.478  0.2631E+01  0.6567E+02
  28.488  0.2623E+01  0.6570E+02
  28.498  0.2615E+01  0.6572E+02
  28.508  0.2608E+01  0.6575E+02
  28.518  0.2600E+01  0.6577E+02
  28.528  0.2592E+01  0.6580E+02
  28.538  0.2584E+01  0.6583E+02
  28.548  0.2576E+01  0.6585E+02
  28.558  0.2568E+01  0.6588E+02
  28.568  0.2560E+01  0.6590E+02
  28.578  0.2552E+01  0.6593E+02
  28.588  0.2544E+01  0.6595E+02
  28.598  0.2537E+01  0.6598E+02
  28.608  0.2529E+01  0.6600E+02
  28.618  0.2522E+01  0.6603E+02
  28.628  0.2514E+01  0.6605E+02
  28.638  0.2507E+01  0.6608E+02
  28.648  0.2499E+01  0.6610E+02
  28.658  0.2492E+01  0.6613E+02
  28.668  0.2485E+01  0.6615E+02
  28.678  0.2478E+01  0.6618E+02
  28.688  0.2471E+01  0.6620E+02
  28.698  0.2465E+01  0.6623E+02
  28.708  0.2458E+01  0.6625E+02
  28.718  0.2452E+01  0.6628E+02
  28.728  0.2445E+01  0.6630E+02
  28.738  0.2439E+01  0.6633E+02
  28.748  0.2433E+01  0.6635E+02
  28.758  0.2427E+01  0.6638E+02
  28.768  0.2422E+01  0.6640E+02
  28.778  0.2416E+01  0.6642E+02
  28.788  0.2411E+01  0.6645E+02
  28.798  0.2405E+01  0.6647E+02
  28.808  0.2400E+01  0.6650E+02
  28.818  0.2395E+01  0.6652E+02
  28.828  0.2391E+01  0.6654E+02
  28.838  0.2386E+01  0.6657E+02
  28.848  0.2381E+01  0.6659E+02
  28.858  0.2377E+01  0.6662E+02
  28.868  0.2373E+01  0.6664E+02
  28.878  0.2368E+01  0.6666E+02
  28.888  0.2364E+01  0.6669E+02
  28.898  0.2361E+01  0.6671E+02
  28.908  0.2357E+01  0.6673E+02
  28.918  0.2353E+01  0.6676E+02
  28.928  0.2350E+01  0.6678E+02
  28.938  0.2346E+01  0.6680E+02
  28.948  0.2343E+01  0.6683E+02
  28.958  0.2339E+01  0.6685E+02
  28.968  0.2336E+01  0.6687E+02
  28.978  0.2333E+01  0.6690E+02
  28.988  0.2330E+01  0.6692E+02
  28.998  0.2327E+01  0.6694E+02
  29.008  0.2324E+01  0.6697E+02
  29.018  0.2321E+01  0.6699E+02
  29.028  0.2318E+01  0.6701E+02
  29.038  0.2316E+01  0.6704E+02
  29.048  0.2313E+01  0.6706E+02
  29.058  0.2310E+01  0.6708E+02
  29.068  0.2307E+01  0.6711E+02
  29.078  0.2305E+01  0.6713E+02
  29.088  0.2302E+01  0.6715E+02
  29.098  0.2299E+01  0.6718E+02
  29.108  0.2296E+01  0.6720E+02
  29.118  0.2293E+01  0.6722E+02
  29.128  0.2291E+01  0.6724E+02
  29.138  0.2288E+01  0.6727E+02
  29.148  0.2285E+01  0.6729E+02
  29.158  0.2282E+01  0.6731E+02
  29.168  0.2279E+01  0.6734E+02
  29.178  0.2276E+01  0.6736E+02
  29.188  0.2273E+01  0.6738E+02
  29.198  0.2269E+01  0.6740E+02
  29.208  0.2266E+01  0.6743E+02
  29.218  0.2263E+01  0.6745E+02
  29.228  0.2259E+01  0.6747E+02
  29.238  0.2256E+01  0.6749E+02
  29.248  0.2252E+01  0.6752E+02
  29.258  0.2248E+01  0.6754E+02
  29.268  0.2244E+01  0.6756E+02
  29.278  0.2240E+01  0.6758E+02
  29.288  0.2236E+01  0.6761E+02
  29.298  0.2232E+01  0.6763E+02
  29.308  0.2228E+01  0.6765E+02
  29.318  0.2223E+01  0.6767E+02
  29.328  0.2219E+01  0.6770E+02
  29.338  0.2214E+01  0.6772E+02
  29.348  0.2209E+01  0.6774E+02
  29.358  0.2204E+01  0.6776E+02
  29.368  0.2199E+01  0.6778E+02
  29.378  0.2194E+01  0.6781E+02
  29.388  0.2189E+01  0.6783E+02
  29.398  0.2183E+01  0.6785E+02
  29.408  0.2177E+01  0.6787E+02
  29.418  0.2172E+01  0.6789E+02
  29.428  0.2166E+01  0.6791E+02
  29.438  0.2160E+01  0.6794E+02
  29.448  0.2154E+01  0.6796E+02
  29.458  0.2148E+01  0.6798E+02
  29.468  0.2141E+01  0.6800E+02
  29.478  0.2135E+01  0.6802E+02
  29.488  0.2128E+01  0.6804E+02
  29.498  0.2122E+01  0.6806E+02
  29.508  0.2115E+01  0.6809E+02
  29.518  0.2108E+01  0.6811E+02
  29.528  0.2101E+01  0.6813E+02
  29.538  0.2094E+01  0.6815E+02
  29.548  0.2087E+01  0.6817E+02
  29.558  0.2079E+01  0.6819E+02
  29.568  0.2072E+01  0.6821E+02
  29.578  0.2065E+01  0.6823E+02
  29.588  0.2057E+01  0.6825E+02
  29.598  0.2049E+01  0.6827E+02
  29.608  0.2042E+01  0.6829E+02
  29.618  0.2034E+01  0.6831E+02
  29.628  0.2026E+01  0.6833E+02
  29.638  0.2018E+01  0.6835E+02
  29.648  0.2010E+01  0.6837E+02
  29.658  0.2002E+01  0.6839E+02
  29.668  0.1993E+01  0.6841E+02
  29.678  0.1985E+01  0.6843E+02
  29.688  0.1977E+01  0.6845E+02
  29.698  0.1968E+01  0.6847E+02
  29.708  0.1960E+01  0.6849E+02
  29.718  0.1952E+01  0.6851E+02
  29.728  0.1943E+01  0.6853E+02
  29.738  0.1935E+01  0.6855E+02
  29.748  0.1926E+01  0.6857E+02
  29.758  0.1917E+01  0.6859E+02
  29.768  0.1909E+01  0.6861E+02
  29.778  0.1900E+01  0.6863E+02
  29.788  0.1891E+01  0.6865E+02
  29.798  0.1883E+01  0.6866E+02
  29.808  0.1874E+01  0.6868E+02
  29.818  0.1865E+01  0.6870E+02
  29.828  0.1856E+01  0.6872E+02
  29.838  0.1848E+01  0.6874E+02
  29.848  0.1839E+01  0.6876E+02
  29.858  0.1830E+01  0.6878E+02
  29.868  0.1821E+01  0.6879E+02
  29.878  0.1813E+01  0.6881E+02
  29.888  0.1804E+01  0.6883E+02
  29.898  0.1795E+01  0.6885E+02
  29.908  0.1787E+01  0.6887E+02
  29.918  0.1778E+01  0.6888E+02
  29.928  0.1769E+01  0.6890E+02
  29.938  0.1761E+01  0.6892E+02
  29.948  0.1752E+01  0.6894E+02
  29.958  0.1744E+01  0.6895E+02
  29.968  0.1735E+01  0.6897E+02
  29.978  0.1727E+01  0.6899E+02
  29.988  0.1719E+01  0.6901E+02
  29.998  0.1710E+01  0.6902E+02
  30.008  0.1702E+01  0.6904E+02
  30.018  0.1694E+01  0.6906E+02
  30.028  0.1686E+01  0.6907E+02
  30.038  0.1678E+01  0.6909E+02
  30.048  0.1670E+01  0.6911E+02
  30.058  0.1662E+01  0.6912E+02
  30.068  0.1654E+01  0.6914E+02
  30.078  0.1646E+01  0.6916E+02
  30.088  0.1639E+01  0.6917E+02
  30.098  0.1631E+01  0.6919E+02
  30.108  0.1624E+01  0.6921E+02
  30.118  0.1616E+01  0.6922E+02
  30.128  0.1609E+01  0.6924E+02
  30.138  0.1602E+01  0.6925E+02
  30.148  0.1595E+01  0.6927E+02
  30.158  0.1588E+01  0.6929E+02
  30.168  0.1581E+01  0.6930E+02
  30.178  0.1575E+01  0.6932E+02
  30.188  0.1568E+01  0.6933E+02
  30.198  0.1562E+01  0.6935E+02
  30.208  0.1555E+01  0.6936E+02
  30.218  0.1549E+01  0.6938E+02
  30.228  0.1543E+01  0.6940E+02
  30.238  0.1537E+01  0.6941E+02
  30.248  0.1531E+01  0.6943E+02
  30.258  0.1526E+01  0.6944E+02
  30.268  0.1520E+01  0.6946E+02
  30.278  0.1515E+01  0.6947E+02
  30.288  0.1509E+01  0.6949E+02
  30.298  0.1504E+01  0.6950E+02
  30.308  0.1499E+01  0.6952E+02
  30.318  0.1494E+01  0.6953E+02
  30.328  0.1489E+01  0.6955E+02
  30.338  0.1485E+01  0.6956E+02
  30.348  0.1480E+01  0.6958E+02
  30.358  0.1476E+01  0.6959E+02
  30.368  0.1472E+01  0.6961E+02
  30.378  0.1468E+01  0.6962E+02
  30.388  0.1464E+01  0.6964E+02
  30.398  0.1460E+01  0.6965E+02
  30.408  0.1456E+01  0.6966E+02
  30.418  0.1452E+01  0.6968E+02
  30.428  0.1449E+01  0.6969E+02
  30.438  0.1446E+01  0.6971E+02
  30.448  0.1442E+01  0.6972E+02
  30.458  0.1439E+01  0.6974E+02
  30.468  0.1436E+01  0.6975E+02
  30.478  0.1433E+01  0.6977E+02
  30.488  0.1431E+01  0.6978E+02
  30.498  0.1428E+01  0.6979E+02
  30.508  0.1425E+01  0.6981E+02
  30.518  0.1423E+01  0.6982E+02
  30.528  0.1420E+01  0.6984E+02
  30.538  0.1418E+01  0.6985E+02
  30.548  0.1416E+01  0.6986E+02
  30.558  0.1413E+01  0.6988E+02
  30.568  0.1411E+01  0.6989E+02
  30.578  0.1409E+01  0.6991E+02
  30.588  0.1407E+01  0.6992E+02
  30.598  0.1405E+01  0.6994E+02
  30.608  0.1403E+01  0.6995E+02
  30.618  0.1402E+01  0.6996E+02
  30.628  0.1400E+01  0.6998E+02
  30.638  0.1398E+01  0.6999E+02
  30.648  0.1396E+01  0.7001E+02
  30.658  0.1394E+01  0.7002E+02
  30.668  0.1393E+01  0.7003E+02
  30.678  0.1391E+01  0.7005E+02
  30.688  0.1389E+01  0.7006E+02
  30.698  0.1388E+01  0.7007E+02
  30.708  0.1386E+01  0.7009E+02
  30.718  0.1384E+01  0.7010E+02
  30.728  0.1382E+01  0.7012E+02
  30.738  0.1381E+01  0.7013E+02
  30.748  0.1379E+01  0.7014E+02
  30.758  0.1377E+01  0.7016E+02
  30.768  0.1375E+01  0.7017E+02
  30.778  0.1373E+01  0.7019E+02
  30.788  0.1371E+01  0.7020E+02
  30.798  0.1370E+01  0.7021E+02
  30.808  0.1368E+01  0.7023E+02
  30.818  0.1366E+01  0.7024E+02
  30.828  0.1363E+01  0.7025E+02
  30.838  0.1361E+01  0.7027E+02
  30.848  0.1359E+01  0.7028E+02
  30.858  0.1357E+01  0.7029E+02
  30.868  0.1355E+01  0.7031E+02
  30.878  0.1352E+01  0.7032E+02
  30.888  0.1350E+01  0.7034E+02
  30.898  0.1347E+01  0.7035E+02
  30.908  0.1345E+01  0.7036E+02
  30.918  0.1342E+01  0.7038E+02
  30.928  0.1339E+01  0.7039E+02
  30.938  0.1336E+01  0.7040E+02
  30.948  0.1333E+01  0.7042E+02
  30.958  0.1330E+01  0.7043E+02
  30.968  0.1327E+01  0.7044E+02
  30.978  0.1324E+01  0.7046E+02
  30.988  0.1321E+01  0.7047E+02
  30.998  0.1318E+01  0.7048E+02
  31.008  0.1314E+01  0.7049E+02
  31.018  0.1311E+01  0.7051E+02
  31.028  0.1307E+01  0.7052E+02
  31.038  0.1304E+01  0.7053E+02
  31.048  0.1300E+01  0.7055E+02
  31.058  0.1296E+01  0.7056E+02
  31.068  0.1292E+01  0.7057E+02
  31.078  0.1288E+01  0.7059E+02
  31.088  0.1284E+01  0.7060E+02
  31.098  0.1280E+01  0.7061E+02
  31.108  0.1276E+01  0.7062E+02
  31.118  0.1271E+01  0.7064E+02
  31.128  0.1267E+01  0.7065E+02
  31.138  0.1263E+01  0.7066E+02
  31.148  0.1258E+01  0.7067E+02
  31.158  0.1254E+01  0.7069E+02
  31.168  0.1249E+01  0.7070E+02
  31.178  0.1244E+01  0.7071E+02
  31.188  0.1239E+01  0.7072E+02
  31.198  0.1234E+01  0.7074E+02
  31.208  0.1230E+01  0.7075E+02
  31.218  0.1225E+01  0.7076E+02
  31.228  0.1219E+01  0.7077E+02
  31.238  0.1214E+01  0.7079E+02
  31.248  0.1209E+01  0.7080E+02
  31.258  0.1204E+01  0.7081E+02
  31.268  0.1198E+01  0.7082E+02
  31.278  0.1193E+01  0.7083E+02
  31.288  0.1188E+01  0.7085E+02
  31.298  0.1182E+01  0.7086E+02
  31.308  0.1177E+01  0.7087E+02
  31.318  0.1171E+01  0.7088E+02
  31.328  0.1165E+01  0.7089E+02
  31.338  0.1159E+01  0.7090E+02
  31.348  0.1154E+01  0.7092E+02
  31.358  0.1148E+01  0.7093E+02
  31.368  0.1142E+01  0.7094E+02
  31.378  0.1136E+01  0.7095E+02
  31.388  0.1130E+01  0.7096E+02
  31.398  0.1124E+01  0.7097E+02
  31.408  0.1118E+01  0.7098E+02
  31.418  0.1112E+01  0.7099E+02
  31.428  0.1106E+01  0.7101E+02
  31.438  0.1100E+01  0.7102E+02
  31.448  0.1093E+01  0.7103E+02
  31.458  0.1087E+01  0.7104E+02
  31.468  0.1081E+01  0.7105E+02
  31.478  0.1075E+01  0.7106E+02
  31.488  0.1068E+01  0.7107E+02
  31.498  0.1062E+01  0.7108E+02
  31.508  0.1055E+01  0.7109E+02
  31.518  0.1049E+01  0.7110E+02
  31.528  0.1042E+01  0.7111E+02
  31.538  0.1036E+01  0.7112E+02
  31.548  0.1029E+01  0.7113E+02
  31.558  0.1023E+01  0.7114E+02
  31.568  0.1016E+01  0.7115E+02
  31.578  0.1010E+01  0.7116E+02
  31.588  0.1003E+01  0.7117E+02
  31.598  0.9965E+00  0.7118E+02
  31.608  0.9898E+00  0.7119E+02
  31.618  0.9832E+00  0.7120E+02
  31.628  0.9765E+00  0.7121E+02
  31.638  0.9698E+00  0.7122E+02
  31.648  0.9631E+00  0.7123E+02
  31.658  0.9563E+00  0.7124E+02
  31.668  0.9496E+00  0.7125E+02
  31.678  0.9428E+00  0.7126E+02
  31.688  0.9360E+00  0.7127E+02
  31.698  0.9293E+00  0.7128E+02
  31.708  0.9225E+00  0.7129E+02
  31.718  0.9157E+00  0.7130E+02
  31.728  0.9089E+00  0.7131E+02
  31.738  0.9021E+00  0.7132E+02
  31.748  0.8952E+00  0.7133E+02
  31.758  0.8884E+00  0.7133E+02
  31.768  0.8816E+00  0.7134E+02
  31.778  0.8747E+00  0.7135E+02
  31.788  0.8679E+00  0.7136E+02
  31.798  0.8611E+00  0.7137E+02
  31.808  0.8542E+00  0.7138E+02
  31.818  0.8474E+00  0.7139E+02
  31.828  0.8405E+00  0.7139E+02
  31.838  0.8337E+00  0.7140E+02
  31.848  0.8268E+00  0.7141E+02
  31.858  0.8199E+00  0.7142E+02
  31.868  0.8131E+00  0.7143E+02
  31.878  0.8062E+00  0.7144E+02
  31.888  0.7994E+00  0.7144E+02
  31.898  0.7925E+00  0.7145E+02
  31.908  0.7857E+00  0.7146E+02
  31.918  0.7788E+00  0.7147E+02
  31.928  0.7720E+00  0.7148E+02
  31.938  0.7652E+00  0.7148E+02
  31.948  0.7583E+00  0.7149E+02
  31.958  0.7515E+00  0.7150E+02
  31.968  0.7447E+00  0.7151E+02
  31.978  0.7379E+00  0.7151E+02
  31.988  0.7310E+00  0.7152E+02
  31.998  0.7242E+00  0.7153E+02
  32.008  0.7174E+00  0.7153E+02
  32.018  0.7107E+00  0.7154E+02
  32.028  0.7039E+00  0.7155E+02
  32.038  0.6971E+00  0.7156E+02
  32.048  0.6903E+00  0.7156E+02
  32.058  0.6836E+00  0.7157E+02
  32.068  0.6769E+00  0.7158E+02
  32.078  0.6701E+00  0.7158E+02
  32.088  0.6634E+00  0.7159E+02
  32.098  0.6567E+00  0.7160E+02
  32.108  0.6500E+00  0.7160E+02
  32.118  0.6433E+00  0.7161E+02
  32.128  0.6367E+00  0.7162E+02
  32.138  0.6300E+00  0.7162E+02
  32.148  0.6234E+00  0.7163E+02
  32.158  0.6168E+00  0.7163E+02
  32.168  0.6102E+00  0.7164E+02
  32.178  0.6036E+00  0.7165E+02
  32.188  0.5971E+00  0.7165E+02
  32.198  0.5906E+00  0.7166E+02
  32.208  0.5840E+00  0.7166E+02
  32.218  0.5776E+00  0.7167E+02
  32.228  0.5711E+00  0.7168E+02
  32.238  0.5646E+00  0.7168E+02
  32.248  0.5582E+00  0.7169E+02
  32.258  0.5518E+00  0.7169E+02
  32.268  0.5455E+00  0.7170E+02
  32.278  0.5391E+00  0.7170E+02
  32.288  0.5328E+00  0.7171E+02
  32.298  0.5265E+00  0.7171E+02
  32.308  0.5202E+00  0.7172E+02
  32.318  0.5140E+00  0.7172E+02
  32.328  0.5078E+00  0.7173E+02
  32.338  0.5016E+00  0.7173E+02
  32.348  0.4954E+00  0.7174E+02
  32.358  0.4893E+00  0.7174E+02
  32.368  0.4832E+00  0.7175E+02
  32.378  0.4772E+00  0.7175E+02
  32.388  0.4711E+00  0.7176E+02
  32.398  0.4651E+00  0.7176E+02
  32.408  0.4591E+00  0.7177E+02
  32.418  0.4532E+00  0.7177E+02
  32.428  0.4473E+00  0.7178E+02
  32.438  0.4414E+00  0.7178E+02
  32.448  0.4356E+00  0.7179E+02
  32.458  0.4298E+00  0.7179E+02
  32.468  0.4240E+00  0.7179E+02
  32.478  0.4183E+00  0.7180E+02
  32.488  0.4126E+00  0.7180E+02
  32.498  0.4069E+00  0.7181E+02
  32.508  0.4012E+00  0.7181E+02
  32.518  0.3956E+00  0.7181E+02
  32.528  0.3901E+00  0.7182E+02
  32.538  0.3845E+00  0.7182E+02
  32.548  0.3790E+00  0.7183E+02
  32.558  0.3736E+00  0.7183E+02
  32.568  0.3681E+00  0.7183E+02
  32.578  0.3627E+00  0.7184E+02
  32.588  0.3574E+00  0.7184E+02
  32.598  0.3520E+00  0.7184E+02
  32.608  0.3467E+00  0.7185E+02
  32.618  0.3415E+00  0.7185E+02
  32.628  0.3363E+00  0.7185E+02
  32.638  0.3311E+00  0.7186E+02
  32.648  0.3259E+00  0.7186E+02
  32.658  0.3208E+00  0.7186E+02
  32.668  0.3157E+00  0.7187E+02
  32.678  0.3107E+00  0.7187E+02
  32.688  0.3056E+00  0.7187E+02
  32.698  0.3007E+00  0.7188E+02
  32.708  0.2957E+00  0.7188E+02
  32.718  0.2908E+00  0.7188E+02
  32.728  0.2860E+00  0.7188E+02
  32.738  0.2811E+00  0.7189E+02
  32.748  0.2763E+00  0.7189E+02
  32.758  0.2716E+00  0.7189E+02
  32.768  0.2668E+00  0.7190E+02
  32.778  0.2622E+00  0.7190E+02
  32.788  0.2575E+00  0.7190E+02
  32.798  0.2529E+00  0.7190E+02
  32.808  0.2483E+00  0.7191E+02
  32.818  0.2438E+00  0.7191E+02
  32.828  0.2393E+00  0.7191E+02
  32.838  0.2349E+00  0.7191E+02
  32.848  0.2305E+00  0.7192E+02
  32.858  0.2261E+00  0.7192E+02
  32.868  0.2218E+00  0.7192E+02
  32.878  0.2175E+00  0.7192E+02
  32.888  0.2132E+00  0.7192E+02
  32.898  0.2090E+00  0.7193E+02
  32.908  0.2048E+00  0.7193E+02
  32.918  0.2007E+00  0.7193E+02
  32.928  0.1966E+00  0.7193E+02
  32.938  0.1926E+00  0.7193E+02
  32.948  0.1886E+00  0.7194E+02
  32.958  0.1846E+00  0.7194E+02
  32.968  0.1807E+00  0.7194E+02
  32.978  0.1768E+00  0.7194E+02
  32.988  0.1730E+00  0.7194E+02
  32.998  0.1692E+00  0.7194E+02
  33.008  0.1655E+00  0.7195E+02
  33.018  0.1618E+00  0.7195E+02
  33.028  0.1582E+00  0.7195E+02
  33.038  0.1546E+00  0.7195E+02
  33.048  0.1510E+00  0.7195E+02
  33.058  0.1475E+00  0.7195E+02
  33.068  0.1440E+00  0.7196E+02
  33.078  0.1406E+00  0.7196E+02
  33.088  0.1372E+00  0.7196E+02
  33.098  0.1339E+00  0.7196E+02
  33.108  0.1306E+00  0.7196E+02
  33.118  0.1274E+00  0.7196E+02
  33.128  0.1242E+00  0.7196E+02
  33.138  0.1211E+00  0.7196E+02
  33.148  0.1180E+00  0.7197E+02
  33.158  0.1150E+00  0.7197E+02
  33.168  0.1120E+00  0.7197E+02
  33.178  0.1090E+00  0.7197E+02
  33.188  0.1061E+00  0.7197E+02
  33.198  0.1033E+00  0.7197E+02
  33.208  0.1005E+00  0.7197E+02
  33.218  0.9774E-01  0.7197E+02
  33.228  0.9504E-01  0.7197E+02
  33.238  0.9238E-01  0.7198E+02
  33.248  0.8977E-01  0.7198E+02
  33.258  0.8720E-01  0.7198E+02
  33.268  0.8469E-01  0.7198E+02
  33.278  0.8222E-01  0.7198E+02
  33.288  0.7980E-01  0.7198E+02
  33.298  0.7742E-01  0.7198E+02
  33.308  0.7509E-01  0.7198E+02
  33.318  0.7281E-01  0.7198E+02
  33.328  0.7057E-01  0.7198E+02
  33.338  0.6838E-01  0.7198E+02
  33.348  0.6624E-01  0.7198E+02
  33.358  0.6414E-01  0.7198E+02
  33.368  0.6209E-01  0.7199E+02
  33.378  0.6008E-01  0.7199E+02
  33.388  0.5811E-01  0.7199E+02
  33.398  0.5619E-01  0.7199E+02
  33.408  0.5432E-01  0.7199E+02
  33.418  0.5249E-01  0.7199E+02
  33.428  0.5070E-01  0.7199E+02
  33.438  0.4895E-01  0.7199E+02
  33.448  0.4725E-01  0.7199E+02
  33.458  0.4558E-01  0.7199E+02
  33.468  0.4396E-01  0.7199E+02
  33.478  0.4238E-01  0.7199E+02
  33.488  0.4085E-01  0.7199E+02
  33.498  0.3935E-01  0.7199E+02
  33.508  0.3789E-01  0.7199E+02
  33.518  0.3647E-01  0.7199E+02
  33.528  0.3509E-01  0.7199E+02
  33.538  0.3375E-01  0.7199E+02
  33.548  0.3244E-01  0.7199E+02
  33.558  0.3117E-01  0.7199E+02
  33.568  0.2994E-01  0.7199E+02
  33.578  0.2875E-01  0.7199E+02
  33.588  0.2759E-01  0.7199E+02
  33.598  0.2647E-01  0.7199E+02
  33.608  0.2538E-01  0.7200E+02
  33.618  0.2432E-01  0.7200E+02
  33.628  0.2330E-01  0.7200E+02
  33.638  0.2231E-01  0.7200E+02
  33.648  0.2136E-01  0.7200E+02
  33.658  0.2043E-01  0.7200E+02
  33.668  0.1954E-01  0.7200E+02
  33.678  0.1867E-01  0.7200E+02
  33.688  0.1784E-01  0.7200E+02
  33.698  0.1703E-01  0.7200E+02
  33.708  0.1626E-01  0.7200E+02
  33.718  0.1551E-01  0.7200E+02
  33.728  0.1479E-01  0.7200E+02
  33.738  0.1409E-01  0.7200E+02
  33.748  0.1342E-01  0.7200E+02
  33.758  0.1278E-01  0.7200E+02
  33.768  0.1216E-01  0.7200E+02
  33.778  0.1157E-01  0.7200E+02
  33.788  0.1100E-01  0.7200E+02
  33.798  0.1045E-01  0.7200E+02
  33.808  0.9921E-02  0.7200E+02
  33.818  0.9416E-02  0.7200E+02
  33.828  0.8933E-02  0.7200E+02
  33.838  0.8469E-02  0.7200E+02
  33.848  0.8026E-02  0.7200E+02
  33.858  0.7601E-02  0.7200E+02
  33.868  0.7196E-02  0.7200E+02
  33.878  0.6808E-02  0.7200E+02
  33.888  0.6437E-02  0.7200E+02
  33.898  0.6084E-02  0.7200E+02
  33.908  0.5747E-02  0.7200E+02
  33.918  0.5425E-02  0.7200E+02
  33.928  0.5119E-02  0.7200E+02
  33.938  0.4827E-02  0.7200E+02
  33.948  0.4549E-02  0.7200E+02
  33.958  0.4285E-02  0.7200E+02
  33.968  0.4034E-02  0.7200E+02
  33.978  0.3795E-02  0.7200E+02
  33.988  0.3569E-02  0.7200E+02
  33.998  0.3354E-02  0.7200E+02
  34.008  0.3150E-02  0.7200E+02
  34.018  0.2957E-02  0.7200E+02
  34.028  0.2774E-02  0.7200E+02
  34.038  0.2601E-02  0.7200E+02
  34.048  0.2437E-02  0.7200E+02
  34.058  0.2283E-02  0.7200E+02
  34.068  0.2136E-02  0.7200E+02
  34.078  0.1998E-02  0.7200E+02
  34.088  0.1868E-02  0.7200E+02
  34.098  0.1745E-02  0.7200E+02
  34.108  0.1630E-02  0.7200E+02
  34.118  0.1521E-02  0.7200E+02
  34.128  0.1418E-02  0.7200E+02
  34.138  0.1322E-02  0.7200E+02
  34.148  0.1232E-02  0.7200E+02
  34.158  0.1146E-02  0.7200E+02
  34.168  0.1067E-02  0.7200E+02
  34.178  0.9918E-03  0.7200E+02
  34.188  0.9216E-03  0.7200E+02
  34.198  0.8559E-03  0.7200E+02
  34.208  0.7943E-03  0.7200E+02
  34.218  0.7368E-03  0.7200E+02
  34.228  0.6829E-03  0.7200E+02
  34.238  0.6327E-03  0.7200E+02
  34.248  0.5857E-03  0.7200E+02
  34.258  0.5419E-03  0.7200E+02
  34.268  0.5011E-03  0.7200E+02
  34.278  0.4631E-03  0.7200E+02
  34.288  0.4276E-03  0.7200E+02
  34.298  0.3947E-03  0.7200E+02
  34.308  0.3640E-03  0.7200E+02
  34.318  0.3356E-03  0.7200E+02
  34.328  0.3091E-03  0.7200E+02
  34.338  0.2846E-03  0.7200E+02
  34.348  0.2618E-03  0.7200E+02
  34.358  0.2407E-03  0.7200E+02
  34.368  0.2212E-03  0.7200E+02
  34.378  0.2031E-03  0.7200E+02
  34.388  0.1864E-03  0.7200E+02
  34.398  0.1709E-03  0.7200E+02
  34.408  0.1567E-03  0.7200E+02
  34.418  0.1435E-03  0.7200E+02
  34.428  0.1314E-03  0.7200E+02
  34.438  0.1202E-03  0.7200E+02
  34.448  0.1099E-03  0.7200E+02
  34.458  0.1004E-03  0.7200E+02
  34.468  0.9163E-04  0.7200E+02
  34.478  0.8360E-04  0.7200E+02
  34.488  0.7623E-04  0.7200E+02
  34.498  0.6947E-04  0.7200E+02
  34.508  0.6326E-04  0.7200E+02
  34.518  0.5757E-04  0.7200E+02
  34.528  0.5236E-04  0.7200E+02
  34.538  0.4759E-04  0.7200E+02
  34.548  0.4323E-04  0.7200E+02
  34.558  0.3924E-04  0.7200E+02
  34.568  0.3559E-04  0.7200E+02
  34.578  0.3227E-04  0.7200E+02
  34.588  0.2923E-04  0.7200E+02
  34.598  0.2646E-04  0.7200E+02
  34.608  0.2394E-04  0.7200E+02
  34.618  0.2165E-04  0.7200E+02
  34.628  0.1956E-04  0.7200E+02
  34.638  0.1766E-04  0.7200E+02
  34.648  0.1594E-04  0.7200E+02
  34.658  0.1437E-04  0.7200E+02
  34.668  0.1295E-04  0.7200E+02
  34.678  0.1167E-04  0.7200E+02
  34.688  0.1050E-04  0.7200E+02
  34.698  0.9445E-05  0.7200E+02
  34.708  0.8490E-05  0.7200E+02
  34.718  0.7626E-05  0.7200E+02
  34.728  0.6846E-05  0.7200E+02
  34.738  0.6141E-05  0.7200E+02
  34.748  0.5505E-05  0.7200E+02
  34.758  0.4932E-05  0.7200E+02
  34.768  0.4416E-05  0.7200E+02
  34.778  0.3951E-05  0.7200E+02
