#  E (eV)   dos(E)     Int dos(E) EFermi =    8.628 eV
 -18.406  0.1074E-04  0.1074E-06
 -18.396  0.1210E-04  0.2284E-06
 -18.386  0.1362E-04  0.3645E-06
 -18.376  0.1532E-04  0.5177E-06
 -18.366  0.1722E-04  0.6899E-06
 -18.356  0.1934E-04  0.8833E-06
 -18.346  0.2172E-04  0.1101E-05
 -18.336  0.2437E-04  0.1344E-05
 -18.326  0.2733E-04  0.1617E-05
 -18.316  0.3062E-04  0.1924E-05
 -18.306  0.3430E-04  0.2267E-05
 -18.296  0.3839E-04  0.2651E-05
 -18.286  0.4294E-04  0.3080E-05
 -18.276  0.4800E-04  0.3560E-05
 -18.266  0.5363E-04  0.4096E-05
 -18.256  0.5988E-04  0.4695E-05
 -18.246  0.6681E-04  0.5363E-05
 -18.236  0.7451E-04  0.6108E-05
 -18.226  0.8303E-04  0.6939E-05
 -18.216  0.9248E-04  0.7863E-05
 -18.206  0.1029E-03  0.8893E-05
 -18.196  0.1145E-03  0.1004E-04
 -18.186  0.1273E-03  0.1131E-04
 -18.176  0.1414E-03  0.1273E-04
 -18.166  0.1570E-03  0.1430E-04
 -18.156  0.1743E-03  0.1604E-04
 -18.146  0.1933E-03  0.1797E-04
 -18.136  0.2142E-03  0.2011E-04
 -18.126  0.2373E-03  0.2249E-04
 -18.116  0.2626E-03  0.2511E-04
 -18.106  0.2906E-03  0.2802E-04
 -18.096  0.3212E-03  0.3123E-04
 -18.086  0.3550E-03  0.3478E-04
 -18.076  0.3920E-03  0.3870E-04
 -18.066  0.4326E-03  0.4303E-04
 -18.056  0.4771E-03  0.4780E-04
 -18.046  0.5259E-03  0.5306E-04
 -18.036  0.5794E-03  0.5885E-04
 -18.026  0.6379E-03  0.6523E-04
 -18.016  0.7019E-03  0.7225E-04
 -18.006  0.7718E-03  0.7997E-04
 -17.996  0.8482E-03  0.8845E-04
 -17.986  0.9316E-03  0.9776E-04
 -17.976  0.1023E-02  0.1080E-03
 -17.966  0.1122E-02  0.1192E-03
 -17.956  0.1230E-02  0.1315E-03
 -17.946  0.1348E-02  0.1450E-03
 -17.936  0.1476E-02  0.1597E-03
 -17.926  0.1615E-02  0.1759E-03
 -17.916  0.1766E-02  0.1936E-03
 -17.906  0.1931E-02  0.2129E-03
 -17.896  0.2109E-02  0.2340E-03
 -17.886  0.2303E-02  0.2570E-03
 -17.876  0.2513E-02  0.2821E-03
 -17.866  0.2740E-02  0.3095E-03
 -17.856  0.2987E-02  0.3394E-03
 -17.846  0.3253E-02  0.3719E-03
 -17.836  0.3541E-02  0.4073E-03
 -17.826  0.3853E-02  0.4459E-03
 -17.816  0.4189E-02  0.4878E-03
 -17.806  0.4552E-02  0.5333E-03
 -17.796  0.4944E-02  0.5827E-03
 -17.786  0.5366E-02  0.6364E-03
 -17.776  0.5821E-02  0.6946E-03
 -17.766  0.6311E-02  0.7577E-03
 -17.756  0.6839E-02  0.8261E-03
 -17.746  0.7405E-02  0.9002E-03
 -17.736  0.8015E-02  0.9803E-03
 -17.726  0.8669E-02  0.1067E-02
 -17.716  0.9371E-02  0.1161E-02
 -17.706  0.1012E-01  0.1262E-02
 -17.696  0.1093E-01  0.1371E-02
 -17.686  0.1180E-01  0.1489E-02
 -17.676  0.1272E-01  0.1616E-02
 -17.666  0.1372E-01  0.1754E-02
 -17.656  0.1478E-01  0.1901E-02
 -17.646  0.1591E-01  0.2060E-02
 -17.636  0.1712E-01  0.2232E-02
 -17.626  0.1841E-01  0.2416E-02
 -17.616  0.1979E-01  0.2614E-02
 -17.606  0.2126E-01  0.2826E-02
 -17.596  0.2282E-01  0.3055E-02
 -17.586  0.2449E-01  0.3299E-02
 -17.576  0.2626E-01  0.3562E-02
 -17.566  0.2815E-01  0.3844E-02
 -17.556  0.3015E-01  0.4145E-02
 -17.546  0.3228E-01  0.4468E-02
 -17.536  0.3454E-01  0.4813E-02
 -17.526  0.3694E-01  0.5183E-02
 -17.516  0.3948E-01  0.5578E-02
 -17.506  0.4218E-01  0.5999E-02
 -17.496  0.4503E-01  0.6450E-02
 -17.486  0.4805E-01  0.6930E-02
 -17.476  0.5124E-01  0.7443E-02
 -17.466  0.5461E-01  0.7989E-02
 -17.456  0.5818E-01  0.8570E-02
 -17.446  0.6194E-01  0.9190E-02
 -17.436  0.6591E-01  0.9849E-02
 -17.426  0.7009E-01  0.1055E-01
 -17.416  0.7450E-01  0.1129E-01
 -17.406  0.7914E-01  0.1209E-01
 -17.396  0.8403E-01  0.1293E-01
 -17.386  0.8917E-01  0.1382E-01
 -17.376  0.9457E-01  0.1476E-01
 -17.366  0.1002E+00  0.1577E-01
 -17.356  0.1062E+00  0.1683E-01
 -17.346  0.1125E+00  0.1795E-01
 -17.336  0.1190E+00  0.1914E-01
 -17.326  0.1259E+00  0.2040E-01
 -17.316  0.1331E+00  0.2173E-01
 -17.306  0.1406E+00  0.2314E-01
 -17.296  0.1485E+00  0.2462E-01
 -17.286  0.1567E+00  0.2619E-01
 -17.276  0.1653E+00  0.2784E-01
 -17.266  0.1743E+00  0.2959E-01
 -17.256  0.1836E+00  0.3142E-01
 -17.246  0.1934E+00  0.3336E-01
 -17.236  0.2036E+00  0.3539E-01
 -17.226  0.2142E+00  0.3753E-01
 -17.216  0.2252E+00  0.3979E-01
 -17.206  0.2367E+00  0.4215E-01
 -17.196  0.2486E+00  0.4464E-01
 -17.186  0.2610E+00  0.4725E-01
 -17.176  0.2738E+00  0.4999E-01
 -17.166  0.2872E+00  0.5286E-01
 -17.156  0.3010E+00  0.5587E-01
 -17.146  0.3153E+00  0.5902E-01
 -17.136  0.3302E+00  0.6232E-01
 -17.126  0.3455E+00  0.6578E-01
 -17.116  0.3614E+00  0.6939E-01
 -17.106  0.3779E+00  0.7317E-01
 -17.096  0.3948E+00  0.7712E-01
 -17.086  0.4123E+00  0.8124E-01
 -17.076  0.4304E+00  0.8555E-01
 -17.066  0.4490E+00  0.9004E-01
 -17.056  0.4682E+00  0.9472E-01
 -17.046  0.4880E+00  0.9960E-01
 -17.036  0.5083E+00  0.1047E+00
 -17.026  0.5293E+00  0.1100E+00
 -17.016  0.5508E+00  0.1155E+00
 -17.006  0.5728E+00  0.1212E+00
 -16.996  0.5955E+00  0.1272E+00
 -16.986  0.6187E+00  0.1334E+00
 -16.976  0.6426E+00  0.1398E+00
 -16.966  0.6670E+00  0.1464E+00
 -16.956  0.6920E+00  0.1534E+00
 -16.946  0.7175E+00  0.1605E+00
 -16.936  0.7437E+00  0.1680E+00
 -16.926  0.7704E+00  0.1757E+00
 -16.916  0.7976E+00  0.1837E+00
 -16.906  0.8255E+00  0.1919E+00
 -16.896  0.8539E+00  0.2005E+00
 -16.886  0.8828E+00  0.2093E+00
 -16.876  0.9122E+00  0.2184E+00
 -16.866  0.9422E+00  0.2278E+00
 -16.856  0.9727E+00  0.2376E+00
 -16.846  0.1004E+01  0.2476E+00
 -16.836  0.1035E+01  0.2579E+00
 -16.826  0.1067E+01  0.2686E+00
 -16.816  0.1099E+01  0.2796E+00
 -16.806  0.1132E+01  0.2909E+00
 -16.796  0.1166E+01  0.3026E+00
 -16.786  0.1199E+01  0.3146E+00
 -16.776  0.1233E+01  0.3269E+00
 -16.766  0.1268E+01  0.3396E+00
 -16.756  0.1302E+01  0.3526E+00
 -16.746  0.1338E+01  0.3660E+00
 -16.736  0.1373E+01  0.3797E+00
 -16.726  0.1409E+01  0.3938E+00
 -16.716  0.1445E+01  0.4082E+00
 -16.706  0.1481E+01  0.4231E+00
 -16.696  0.1517E+01  0.4382E+00
 -16.686  0.1554E+01  0.4538E+00
 -16.676  0.1591E+01  0.4697E+00
 -16.666  0.1627E+01  0.4859E+00
 -16.656  0.1664E+01  0.5026E+00
 -16.646  0.1702E+01  0.5196E+00
 -16.636  0.1739E+01  0.5370E+00
 -16.626  0.1776E+01  0.5547E+00
 -16.616  0.1813E+01  0.5729E+00
 -16.606  0.1850E+01  0.5914E+00
 -16.596  0.1887E+01  0.6103E+00
 -16.586  0.1924E+01  0.6295E+00
 -16.576  0.1961E+01  0.6491E+00
 -16.566  0.1998E+01  0.6691E+00
 -16.556  0.2035E+01  0.6894E+00
 -16.546  0.2071E+01  0.7101E+00
 -16.536  0.2107E+01  0.7312E+00
 -16.526  0.2143E+01  0.7526E+00
 -16.516  0.2179E+01  0.7744E+00
 -16.506  0.2214E+01  0.7966E+00
 -16.496  0.2249E+01  0.8191E+00
 -16.486  0.2284E+01  0.8419E+00
 -16.476  0.2318E+01  0.8651E+00
 -16.466  0.2352E+01  0.8886E+00
 -16.456  0.2386E+01  0.9125E+00
 -16.446  0.2419E+01  0.9367E+00
 -16.436  0.2451E+01  0.9612E+00
 -16.426  0.2484E+01  0.9860E+00
 -16.416  0.2515E+01  0.1011E+01
 -16.406  0.2546E+01  0.1037E+01
 -16.396  0.2577E+01  0.1062E+01
 -16.386  0.2607E+01  0.1088E+01
 -16.376  0.2636E+01  0.1115E+01
 -16.366  0.2665E+01  0.1141E+01
 -16.356  0.2693E+01  0.1168E+01
 -16.346  0.2721E+01  0.1196E+01
 -16.336  0.2748E+01  0.1223E+01
 -16.326  0.2774E+01  0.1251E+01
 -16.316  0.2800E+01  0.1279E+01
 -16.306  0.2825E+01  0.1307E+01
 -16.296  0.2849E+01  0.1336E+01
 -16.286  0.2872E+01  0.1364E+01
 -16.276  0.2895E+01  0.1393E+01
 -16.266  0.2918E+01  0.1422E+01
 -16.256  0.2939E+01  0.1452E+01
 -16.246  0.2960E+01  0.1481E+01
 -16.236  0.2980E+01  0.1511E+01
 -16.226  0.2999E+01  0.1541E+01
 -16.216  0.3018E+01  0.1571E+01
 -16.206  0.3036E+01  0.1602E+01
 -16.196  0.3053E+01  0.1632E+01
 -16.186  0.3070E+01  0.1663E+01
 -16.176  0.3086E+01  0.1694E+01
 -16.166  0.3101E+01  0.1725E+01
 -16.156  0.3115E+01  0.1756E+01
 -16.146  0.3129E+01  0.1787E+01
 -16.136  0.3142E+01  0.1819E+01
 -16.126  0.3155E+01  0.1850E+01
 -16.116  0.3167E+01  0.1882E+01
 -16.106  0.3178E+01  0.1914E+01
 -16.096  0.3188E+01  0.1946E+01
 -16.086  0.3198E+01  0.1978E+01
 -16.076  0.3208E+01  0.2010E+01
 -16.066  0.3216E+01  0.2042E+01
 -16.056  0.3225E+01  0.2074E+01
 -16.046  0.3232E+01  0.2106E+01
 -16.036  0.3239E+01  0.2139E+01
 -16.026  0.3246E+01  0.2171E+01
 -16.016  0.3252E+01  0.2204E+01
 -16.006  0.3258E+01  0.2236E+01
 -15.996  0.3263E+01  0.2269E+01
 -15.986  0.3267E+01  0.2302E+01
 -15.976  0.3272E+01  0.2334E+01
 -15.966  0.3275E+01  0.2367E+01
 -15.956  0.3279E+01  0.2400E+01
 -15.946  0.3282E+01  0.2433E+01
 -15.936  0.3285E+01  0.2466E+01
 -15.926  0.3287E+01  0.2498E+01
 -15.916  0.3289E+01  0.2531E+01
 -15.906  0.3291E+01  0.2564E+01
 -15.896  0.3293E+01  0.2597E+01
 -15.886  0.3294E+01  0.2630E+01
 -15.876  0.3295E+01  0.2663E+01
 -15.866  0.3296E+01  0.2696E+01
 -15.856  0.3297E+01  0.2729E+01
 -15.846  0.3298E+01  0.2762E+01
 -15.836  0.3298E+01  0.2795E+01
 -15.826  0.3299E+01  0.2828E+01
 -15.816  0.3299E+01  0.2861E+01
 -15.806  0.3300E+01  0.2894E+01
 -15.796  0.3300E+01  0.2927E+01
 -15.786  0.3301E+01  0.2960E+01
 -15.776  0.3301E+01  0.2993E+01
 -15.766  0.3302E+01  0.3026E+01
 -15.756  0.3303E+01  0.3059E+01
 -15.746  0.3304E+01  0.3092E+01
 -15.736  0.3305E+01  0.3125E+01
 -15.726  0.3307E+01  0.3158E+01
 -15.716  0.3308E+01  0.3191E+01
 -15.706  0.3310E+01  0.3224E+01
 -15.696  0.3313E+01  0.3257E+01
 -15.686  0.3315E+01  0.3291E+01
 -15.676  0.3319E+01  0.3324E+01
 -15.666  0.3322E+01  0.3357E+01
 -15.656  0.3326E+01  0.3390E+01
 -15.646  0.3330E+01  0.3424E+01
 -15.636  0.3335E+01  0.3457E+01
 -15.626  0.3341E+01  0.3490E+01
 -15.616  0.3347E+01  0.3524E+01
 -15.606  0.3354E+01  0.3557E+01
 -15.596  0.3361E+01  0.3591E+01
 -15.586  0.3369E+01  0.3625E+01
 -15.576  0.3378E+01  0.3658E+01
 -15.566  0.3387E+01  0.3692E+01
 -15.556  0.3398E+01  0.3726E+01
 -15.546  0.3409E+01  0.3760E+01
 -15.536  0.3421E+01  0.3795E+01
 -15.526  0.3434E+01  0.3829E+01
 -15.516  0.3447E+01  0.3863E+01
 -15.506  0.3462E+01  0.3898E+01
 -15.496  0.3478E+01  0.3933E+01
 -15.486  0.3494E+01  0.3968E+01
 -15.476  0.3512E+01  0.4003E+01
 -15.466  0.3531E+01  0.4038E+01
 -15.456  0.3551E+01  0.4074E+01
 -15.446  0.3572E+01  0.4109E+01
 -15.436  0.3594E+01  0.4145E+01
 -15.426  0.3618E+01  0.4181E+01
 -15.416  0.3642E+01  0.4218E+01
 -15.406  0.3668E+01  0.4255E+01
 -15.396  0.3695E+01  0.4292E+01
 -15.386  0.3723E+01  0.4329E+01
 -15.376  0.3753E+01  0.4366E+01
 -15.366  0.3784E+01  0.4404E+01
 -15.356  0.3816E+01  0.4442E+01
 -15.346  0.3850E+01  0.4481E+01
 -15.336  0.3885E+01  0.4520E+01
 -15.326  0.3921E+01  0.4559E+01
 -15.316  0.3959E+01  0.4598E+01
 -15.306  0.3998E+01  0.4638E+01
 -15.296  0.4038E+01  0.4679E+01
 -15.286  0.4080E+01  0.4720E+01
 -15.276  0.4123E+01  0.4761E+01
 -15.266  0.4168E+01  0.4803E+01
 -15.256  0.4214E+01  0.4845E+01
 -15.246  0.4261E+01  0.4887E+01
 -15.236  0.4310E+01  0.4930E+01
 -15.226  0.4360E+01  0.4974E+01
 -15.216  0.4411E+01  0.5018E+01
 -15.206  0.4463E+01  0.5063E+01
 -15.196  0.4517E+01  0.5108E+01
 -15.186  0.4572E+01  0.5154E+01
 -15.176  0.4628E+01  0.5200E+01
 -15.166  0.4686E+01  0.5247E+01
 -15.156  0.4744E+01  0.5294E+01
 -15.146  0.4804E+01  0.5342E+01
 -15.136  0.4864E+01  0.5391E+01
 -15.126  0.4926E+01  0.5440E+01
 -15.116  0.4988E+01  0.5490E+01
 -15.106  0.5051E+01  0.5540E+01
 -15.096  0.5115E+01  0.5592E+01
 -15.086  0.5180E+01  0.5643E+01
 -15.076  0.5245E+01  0.5696E+01
 -15.066  0.5311E+01  0.5749E+01
 -15.056  0.5377E+01  0.5803E+01
 -15.046  0.5443E+01  0.5857E+01
 -15.036  0.5510E+01  0.5912E+01
 -15.026  0.5577E+01  0.5968E+01
 -15.016  0.5644E+01  0.6025E+01
 -15.006  0.5712E+01  0.6082E+01
 -14.996  0.5779E+01  0.6139E+01
 -14.986  0.5845E+01  0.6198E+01
 -14.976  0.5912E+01  0.6257E+01
 -14.966  0.5978E+01  0.6317E+01
 -14.956  0.6043E+01  0.6377E+01
 -14.946  0.6108E+01  0.6438E+01
 -14.936  0.6172E+01  0.6500E+01
 -14.926  0.6235E+01  0.6562E+01
 -14.916  0.6297E+01  0.6625E+01
 -14.906  0.6358E+01  0.6689E+01
 -14.896  0.6417E+01  0.6753E+01
 -14.886  0.6476E+01  0.6818E+01
 -14.876  0.6532E+01  0.6883E+01
 -14.866  0.6587E+01  0.6949E+01
 -14.856  0.6640E+01  0.7015E+01
 -14.846  0.6692E+01  0.7082E+01
 -14.836  0.6741E+01  0.7150E+01
 -14.826  0.6788E+01  0.7218E+01
 -14.816  0.6833E+01  0.7286E+01
 -14.806  0.6875E+01  0.7355E+01
 -14.796  0.6915E+01  0.7424E+01
 -14.786  0.6953E+01  0.7493E+01
 -14.776  0.6988E+01  0.7563E+01
 -14.766  0.7019E+01  0.7633E+01
 -14.756  0.7048E+01  0.7704E+01
 -14.746  0.7074E+01  0.7775E+01
 -14.736  0.7097E+01  0.7846E+01
 -14.726  0.7117E+01  0.7917E+01
 -14.716  0.7133E+01  0.7988E+01
 -14.706  0.7147E+01  0.8060E+01
 -14.696  0.7156E+01  0.8131E+01
 -14.686  0.7163E+01  0.8203E+01
 -14.676  0.7165E+01  0.8274E+01
 -14.666  0.7165E+01  0.8346E+01
 -14.656  0.7160E+01  0.8418E+01
 -14.646  0.7152E+01  0.8489E+01
 -14.636  0.7141E+01  0.8561E+01
 -14.626  0.7125E+01  0.8632E+01
 -14.616  0.7106E+01  0.8703E+01
 -14.606  0.7083E+01  0.8774E+01
 -14.596  0.7057E+01  0.8844E+01
 -14.586  0.7027E+01  0.8915E+01
 -14.576  0.6993E+01  0.8985E+01
 -14.566  0.6955E+01  0.9054E+01
 -14.556  0.6914E+01  0.9123E+01
 -14.546  0.6869E+01  0.9192E+01
 -14.536  0.6821E+01  0.9260E+01
 -14.526  0.6769E+01  0.9328E+01
 -14.516  0.6714E+01  0.9395E+01
 -14.506  0.6656E+01  0.9462E+01
 -14.496  0.6594E+01  0.9527E+01
 -14.486  0.6529E+01  0.9593E+01
 -14.476  0.6461E+01  0.9657E+01
 -14.466  0.6390E+01  0.9721E+01
 -14.456  0.6315E+01  0.9784E+01
 -14.446  0.6239E+01  0.9847E+01
 -14.436  0.6159E+01  0.9908E+01
 -14.426  0.6077E+01  0.9969E+01
 -14.416  0.5992E+01  0.1003E+02
 -14.406  0.5905E+01  0.1009E+02
 -14.396  0.5815E+01  0.1015E+02
 -14.386  0.5724E+01  0.1020E+02
 -14.376  0.5630E+01  0.1026E+02
 -14.366  0.5535E+01  0.1032E+02
 -14.356  0.5438E+01  0.1037E+02
 -14.346  0.5339E+01  0.1042E+02
 -14.336  0.5239E+01  0.1048E+02
 -14.326  0.5138E+01  0.1053E+02
 -14.316  0.5035E+01  0.1058E+02
 -14.306  0.4932E+01  0.1063E+02
 -14.296  0.4827E+01  0.1067E+02
 -14.286  0.4722E+01  0.1072E+02
 -14.276  0.4616E+01  0.1077E+02
 -14.266  0.4510E+01  0.1081E+02
 -14.256  0.4403E+01  0.1086E+02
 -14.246  0.4297E+01  0.1090E+02
 -14.236  0.4190E+01  0.1094E+02
 -14.226  0.4083E+01  0.1098E+02
 -14.216  0.3976E+01  0.1102E+02
 -14.206  0.3870E+01  0.1106E+02
 -14.196  0.3764E+01  0.1110E+02
 -14.186  0.3659E+01  0.1114E+02
 -14.176  0.3555E+01  0.1117E+02
 -14.166  0.3451E+01  0.1121E+02
 -14.156  0.3348E+01  0.1124E+02
 -14.146  0.3246E+01  0.1127E+02
 -14.136  0.3145E+01  0.1130E+02
 -14.126  0.3045E+01  0.1133E+02
 -14.116  0.2947E+01  0.1136E+02
 -14.106  0.2850E+01  0.1139E+02
 -14.096  0.2754E+01  0.1142E+02
 -14.086  0.2660E+01  0.1145E+02
 -14.076  0.2567E+01  0.1147E+02
 -14.066  0.2476E+01  0.1150E+02
 -14.056  0.2387E+01  0.1152E+02
 -14.046  0.2299E+01  0.1154E+02
 -14.036  0.2213E+01  0.1157E+02
 -14.026  0.2129E+01  0.1159E+02
 -14.016  0.2047E+01  0.1161E+02
 -14.006  0.1967E+01  0.1163E+02
 -13.996  0.1889E+01  0.1165E+02
 -13.986  0.1812E+01  0.1166E+02
 -13.976  0.1738E+01  0.1168E+02
 -13.966  0.1665E+01  0.1170E+02
 -13.956  0.1595E+01  0.1171E+02
 -13.946  0.1526E+01  0.1173E+02
 -13.936  0.1460E+01  0.1174E+02
 -13.926  0.1395E+01  0.1176E+02
 -13.916  0.1332E+01  0.1177E+02
 -13.906  0.1272E+01  0.1178E+02
 -13.896  0.1213E+01  0.1180E+02
 -13.886  0.1156E+01  0.1181E+02
 -13.876  0.1102E+01  0.1182E+02
 -13.866  0.1049E+01  0.1183E+02
 -13.856  0.9978E+00  0.1184E+02
 -13.846  0.9487E+00  0.1185E+02
 -13.836  0.9013E+00  0.1186E+02
 -13.826  0.8558E+00  0.1187E+02
 -13.816  0.8121E+00  0.1187E+02
 -13.806  0.7700E+00  0.1188E+02
 -13.796  0.7297E+00  0.1189E+02
 -13.786  0.6910E+00  0.1190E+02
 -13.776  0.6539E+00  0.1190E+02
 -13.766  0.6184E+00  0.1191E+02
 -13.756  0.5845E+00  0.1191E+02
 -13.746  0.5520E+00  0.1192E+02
 -13.736  0.5210E+00  0.1192E+02
 -13.726  0.4915E+00  0.1193E+02
 -13.716  0.4632E+00  0.1193E+02
 -13.706  0.4364E+00  0.1194E+02
 -13.696  0.4108E+00  0.1194E+02
 -13.686  0.3864E+00  0.1195E+02
 -13.676  0.3633E+00  0.1195E+02
 -13.666  0.3413E+00  0.1195E+02
 -13.656  0.3204E+00  0.1196E+02
 -13.646  0.3006E+00  0.1196E+02
 -13.636  0.2819E+00  0.1196E+02
 -13.626  0.2641E+00  0.1197E+02
 -13.616  0.2473E+00  0.1197E+02
 -13.606  0.2314E+00  0.1197E+02
 -13.596  0.2164E+00  0.1197E+02
 -13.586  0.2022E+00  0.1197E+02
 -13.576  0.1889E+00  0.1198E+02
 -13.566  0.1762E+00  0.1198E+02
 -13.556  0.1644E+00  0.1198E+02
 -13.546  0.1532E+00  0.1198E+02
 -13.536  0.1427E+00  0.1198E+02
 -13.526  0.1328E+00  0.1198E+02
 -13.516  0.1235E+00  0.1199E+02
 -13.506  0.1148E+00  0.1199E+02
 -13.496  0.1067E+00  0.1199E+02
 -13.486  0.9901E-01  0.1199E+02
 -13.476  0.9185E-01  0.1199E+02
 -13.466  0.8515E-01  0.1199E+02
 -13.456  0.7889E-01  0.1199E+02
 -13.446  0.7304E-01  0.1199E+02
 -13.436  0.6757E-01  0.1199E+02
 -13.426  0.6248E-01  0.1199E+02
 -13.416  0.5773E-01  0.1199E+02
 -13.406  0.5330E-01  0.1199E+02
 -13.396  0.4918E-01  0.1199E+02
 -13.386  0.4535E-01  0.1200E+02
 -13.376  0.4179E-01  0.1200E+02
 -13.366  0.3849E-01  0.1200E+02
 -13.356  0.3542E-01  0.1200E+02
 -13.346  0.3257E-01  0.1200E+02
 -13.336  0.2994E-01  0.1200E+02
 -13.326  0.2749E-01  0.1200E+02
 -13.316  0.2523E-01  0.1200E+02
 -13.306  0.2315E-01  0.1200E+02
 -13.296  0.2121E-01  0.1200E+02
 -13.286  0.1943E-01  0.1200E+02
 -13.276  0.1779E-01  0.1200E+02
 -13.266  0.1627E-01  0.1200E+02
 -13.256  0.1487E-01  0.1200E+02
 -13.246  0.1359E-01  0.1200E+02
 -13.236  0.1241E-01  0.1200E+02
 -13.226  0.1132E-01  0.1200E+02
 -13.216  0.1032E-01  0.1200E+02
 -13.206  0.9401E-02  0.1200E+02
 -13.196  0.8559E-02  0.1200E+02
 -13.186  0.7788E-02  0.1200E+02
 -13.176  0.7081E-02  0.1200E+02
 -13.166  0.6435E-02  0.1200E+02
 -13.156  0.5843E-02  0.1200E+02
 -13.146  0.5302E-02  0.1200E+02
 -13.136  0.4808E-02  0.1200E+02
 -13.126  0.4357E-02  0.1200E+02
 -13.116  0.3946E-02  0.1200E+02
 -13.106  0.3571E-02  0.1200E+02
 -13.096  0.3230E-02  0.1200E+02
 -13.086  0.2919E-02  0.1200E+02
 -13.076  0.2637E-02  0.1200E+02
 -13.066  0.2380E-02  0.1200E+02
 -13.056  0.2147E-02  0.1200E+02
 -13.046  0.1935E-02  0.1200E+02
 -13.036  0.1743E-02  0.1200E+02
 -13.026  0.1569E-02  0.1200E+02
 -13.016  0.1412E-02  0.1200E+02
 -13.006  0.1269E-02  0.1200E+02
 -12.996  0.1140E-02  0.1200E+02
 -12.986  0.1024E-02  0.1200E+02
 -12.976  0.9183E-03  0.1200E+02
 -12.966  0.8233E-03  0.1200E+02
 -12.956  0.7377E-03  0.1200E+02
 -12.946  0.6605E-03  0.1200E+02
 -12.936  0.5910E-03  0.1200E+02
 -12.926  0.5285E-03  0.1200E+02
 -12.916  0.4722E-03  0.1200E+02
 -12.906  0.4217E-03  0.1200E+02
 -12.896  0.3763E-03  0.1200E+02
 -12.886  0.3356E-03  0.1200E+02
 -12.876  0.2991E-03  0.1200E+02
 -12.866  0.2664E-03  0.1200E+02
 -12.856  0.2371E-03  0.1200E+02
 -12.846  0.2109E-03  0.1200E+02
 -12.836  0.1874E-03  0.1200E+02
 -12.826  0.1665E-03  0.1200E+02
 -12.816  0.1478E-03  0.1200E+02
 -12.806  0.1311E-03  0.1200E+02
 -12.796  0.1162E-03  0.1200E+02
 -12.786  0.1029E-03  0.1200E+02
 -12.776  0.9111E-04  0.1200E+02
 -12.766  0.8060E-04  0.1200E+02
 -12.756  0.7126E-04  0.1200E+02
 -12.746  0.6295E-04  0.1200E+02
 -12.736  0.5558E-04  0.1200E+02
 -12.726  0.4904E-04  0.1200E+02
 -12.716  0.4324E-04  0.1200E+02
 -12.706  0.3810E-04  0.1200E+02
 -12.696  0.3354E-04  0.1200E+02
 -12.686  0.2952E-04  0.1200E+02
 -12.676  0.2595E-04  0.1200E+02
 -12.666  0.2281E-04  0.1200E+02
 -12.656  0.2003E-04  0.1200E+02
 -12.646  0.1758E-04  0.1200E+02
 -12.636  0.1541E-04  0.1200E+02
 -12.626  0.1351E-04  0.1200E+02
 -12.616  0.1183E-04  0.1200E+02
 -12.606  0.1036E-04  0.1200E+02
 -12.596  0.9057E-05  0.1200E+02
 -12.586  0.7916E-05  0.1200E+02
 -12.576  0.6915E-05  0.1200E+02
 -12.566  0.6036E-05  0.1200E+02
 -12.556  0.5265E-05  0.1200E+02
 -12.546  0.4590E-05  0.1200E+02
 -12.536  0.3998E-05  0.1200E+02
 -12.526  0.3480E-05  0.1200E+02
 -12.516  0.3028E-05  0.1200E+02
 -12.506  0.2632E-05  0.1200E+02
 -12.496  0.2287E-05  0.1200E+02
 -12.486  0.1986E-05  0.1200E+02
 -12.476  0.1723E-05  0.1200E+02
 -12.466  0.1494E-05  0.1200E+02
 -12.456  0.1294E-05  0.1200E+02
 -12.446  0.1121E-05  0.1200E+02
 -12.436  0.9698E-06  0.1200E+02
 -12.426  0.8386E-06  0.1200E+02
 -12.416  0.7247E-06  0.1200E+02
 -12.406  0.6258E-06  0.1200E+02
 -12.396  0.5401E-06  0.1200E+02
 -12.386  0.4657E-06  0.1200E+02
 -12.376  0.4014E-06  0.1200E+02
 -12.366  0.3457E-06  0.1200E+02
 -12.356  0.2975E-06  0.1200E+02
 -12.346  0.2559E-06  0.1200E+02
 -12.336  0.2200E-06  0.1200E+02
 -12.326  0.1889E-06  0.1200E+02
 -12.316  0.1622E-06  0.1200E+02
 -12.306  0.1391E-06  0.1200E+02
 -12.296  0.1193E-06  0.1200E+02
 -12.286  0.1022E-06  0.1200E+02
 -12.276  0.8746E-07  0.1200E+02
 -12.266  0.7482E-07  0.1200E+02
 -12.256  0.6397E-07  0.1200E+02
 -12.246  0.5465E-07  0.1200E+02
 -12.236  0.4666E-07  0.1200E+02
 -12.226  0.3981E-07  0.1200E+02
 -12.216  0.3394E-07  0.1200E+02
 -12.206  0.2892E-07  0.1200E+02
 -12.196  0.2463E-07  0.1200E+02
 -12.186  0.2096E-07  0.1200E+02
 -12.176  0.1782E-07  0.1200E+02
 -12.166  0.1514E-07  0.1200E+02
 -12.156  0.1286E-07  0.1200E+02
 -12.146  0.1091E-07  0.1200E+02
 -12.136  0.9256E-08  0.1200E+02
 -12.126  0.7844E-08  0.1200E+02
 -12.116  0.6644E-08  0.1200E+02
 -12.106  0.5623E-08  0.1200E+02
 -12.096  0.4756E-08  0.1200E+02
 -12.086  0.4020E-08  0.1200E+02
 -12.076  0.3396E-08  0.1200E+02
 -12.066  0.2866E-08  0.1200E+02
 -12.056  0.2418E-08  0.1200E+02
 -12.046  0.2038E-08  0.1200E+02
 -12.036  0.1717E-08  0.1200E+02
 -12.026  0.1445E-08  0.1200E+02
 -12.016  0.1216E-08  0.1200E+02
 -12.006  0.1022E-08  0.1200E+02
 -11.996  0.8589E-09  0.1200E+02
 -11.986  0.7211E-09  0.1200E+02
 -11.976  0.6050E-09  0.1200E+02
 -11.966  0.5073E-09  0.1200E+02
 -11.956  0.4251E-09  0.1200E+02
 -11.946  0.3559E-09  0.1200E+02
 -11.936  0.2978E-09  0.1200E+02
 -11.926  0.2490E-09  0.1200E+02
 -11.916  0.2081E-09  0.1200E+02
 -11.906  0.1738E-09  0.1200E+02
 -11.896  0.1450E-09  0.1200E+02
 -11.886  0.1210E-09  0.1200E+02
 -11.876  0.1008E-09  0.1200E+02
 -11.866  0.8396E-10  0.1200E+02
 -11.856  0.6988E-10  0.1200E+02
 -11.846  0.5812E-10  0.1200E+02
 -11.836  0.4831E-10  0.1200E+02
 -11.826  0.4013E-10  0.1200E+02
 -11.816  0.3331E-10  0.1200E+02
 -11.806  0.2763E-10  0.1200E+02
 -11.796  0.2290E-10  0.1200E+02
 -11.786  0.1897E-10  0.1200E+02
 -11.776  0.1571E-10  0.1200E+02
 -11.766  0.1299E-10  0.1200E+02
 -11.756  0.1074E-10  0.1200E+02
 -11.746  0.8875E-11  0.1200E+02
 -11.736  0.7328E-11  0.1200E+02
 -11.726  0.6046E-11  0.1200E+02
 -11.716  0.4985E-11  0.1200E+02
 -11.706  0.4107E-11  0.1200E+02
 -11.696  0.3382E-11  0.1200E+02
 -11.686  0.2783E-11  0.1200E+02
 -11.676  0.2289E-11  0.1200E+02
 -11.666  0.1881E-11  0.1200E+02
 -11.656  0.1544E-11  0.1200E+02
 -11.646  0.1267E-11  0.1200E+02
 -11.636  0.1039E-11  0.1200E+02
 -11.626  0.8518E-12  0.1200E+02
 -11.616  0.6977E-12  0.1200E+02
 -11.606  0.5710E-12  0.1200E+02
 -11.596  0.4670E-12  0.1200E+02
 -11.586  0.3817E-12  0.1200E+02
 -11.576  0.3118E-12  0.1200E+02
 -11.566  0.2545E-12  0.1200E+02
 -11.556  0.2076E-12  0.1200E+02
 -11.546  0.1692E-12  0.1200E+02
 -11.536  0.1379E-12  0.1200E+02
 -11.526  0.1122E-12  0.1200E+02
 -11.516  0.9130E-13  0.1200E+02
 -11.506  0.7423E-13  0.1200E+02
 -11.496  0.6030E-13  0.1200E+02
 -11.486  0.4896E-13  0.1200E+02
 -11.476  0.3972E-13  0.1200E+02
 -11.466  0.3221E-13  0.1200E+02
 -11.456  0.2610E-13  0.1200E+02
 -11.446  0.2113E-13  0.1200E+02
 -11.436  0.1710E-13  0.1200E+02
 -11.426  0.1383E-13  0.1200E+02
 -11.416  0.1117E-13  0.1200E+02
 -11.406  0.9022E-14  0.1200E+02
 -11.396  0.7281E-14  0.1200E+02
 -11.386  0.5872E-14  0.1200E+02
 -11.376  0.4732E-14  0.1200E+02
 -11.366  0.3811E-14  0.1200E+02
 -11.356  0.3067E-14  0.1200E+02
 -11.346  0.2467E-14  0.1200E+02
 -11.336  0.1983E-14  0.1200E+02
 -11.326  0.1593E-14  0.1200E+02
 -11.316  0.1278E-14  0.1200E+02
 -11.306  0.1026E-14  0.1200E+02
 -11.296  0.8221E-15  0.1200E+02
 -11.286  0.6585E-15  0.1200E+02
 -11.276  0.5272E-15  0.1200E+02
 -11.266  0.4217E-15  0.1200E+02
 -11.256  0.3372E-15  0.1200E+02
 -11.246  0.2694E-15  0.1200E+02
 -11.236  0.2151E-15  0.1200E+02
 -11.226  0.1716E-15  0.1200E+02
 -11.216  0.1368E-15  0.1200E+02
 -11.206  0.1090E-15  0.1200E+02
 -11.196  0.8679E-16  0.1200E+02
 -11.186  0.6906E-16  0.1200E+02
 -11.176  0.5491E-16  0.1200E+02
 -11.166  0.4364E-16  0.1200E+02
 -11.156  0.3465E-16  0.1200E+02
 -11.146  0.2750E-16  0.1200E+02
 -11.136  0.2181E-16  0.1200E+02
 -11.126  0.1728E-16  0.1200E+02
 -11.116  0.1369E-16  0.1200E+02
 -11.106  0.1083E-16  0.1200E+02
 -11.096  0.8568E-17  0.1200E+02
 -11.086  0.6772E-17  0.1200E+02
 -11.076  0.5349E-17  0.1200E+02
 -11.066  0.4222E-17  0.1200E+02
 -11.056  0.3330E-17  0.1200E+02
 -11.046  0.2625E-17  0.1200E+02
 -11.036  0.2068E-17  0.1200E+02
 -11.026  0.1628E-17  0.1200E+02
 -11.016  0.1281E-17  0.1200E+02
 -11.006  0.1007E-17  0.1200E+02
 -10.996  0.7909E-18  0.1200E+02
 -10.986  0.6209E-18  0.1200E+02
 -10.976  0.4872E-18  0.1200E+02
 -10.966  0.3819E-18  0.1200E+02
 -10.956  0.2993E-18  0.1200E+02
 -10.946  0.2343E-18  0.1200E+02
 -10.936  0.1833E-18  0.1200E+02
 -10.926  0.1434E-18  0.1200E+02
 -10.916  0.1120E-18  0.1200E+02
 -10.906  0.8748E-19  0.1200E+02
 -10.896  0.6827E-19  0.1200E+02
 -10.886  0.5324E-19  0.1200E+02
 -10.876  0.4149E-19  0.1200E+02
 -10.866  0.3231E-19  0.1200E+02
 -10.856  0.2515E-19  0.1200E+02
 -10.846  0.1956E-19  0.1200E+02
 -10.836  0.1520E-19  0.1200E+02
 -10.826  0.1181E-19  0.1200E+02
 -10.816  0.9164E-20  0.1200E+02
 -10.806  0.7108E-20  0.1200E+02
 -10.796  0.5510E-20  0.1200E+02
 -10.786  0.4268E-20  0.1200E+02
 -10.776  0.3304E-20  0.1200E+02
 -10.766  0.2556E-20  0.1200E+02
 -10.756  0.1976E-20  0.1200E+02
 -10.746  0.1526E-20  0.1200E+02
 -10.736  0.1178E-20  0.1200E+02
 -10.726  0.9092E-21  0.1200E+02
 -10.716  0.7010E-21  0.1200E+02
 -10.706  0.5402E-21  0.1200E+02
 -10.696  0.4160E-21  0.1200E+02
 -10.686  0.3202E-21  0.1200E+02
 -10.676  0.2464E-21  0.1200E+02
 -10.666  0.1895E-21  0.1200E+02
 -10.656  0.1458E-21  0.1200E+02
 -10.646  0.1122E-21  0.1200E+02
 -10.636  0.8651E-22  0.1200E+02
 -10.626  0.6688E-22  0.1200E+02
 -10.616  0.5198E-22  0.1200E+02
 -10.606  0.4077E-22  0.1200E+02
 -10.596  0.3246E-22  0.1200E+02
 -10.586  0.2648E-22  0.1200E+02
 -10.576  0.2238E-22  0.1200E+02
 -10.566  0.1987E-22  0.1200E+02
 -10.556  0.1878E-22  0.1200E+02
 -10.546  0.1899E-22  0.1200E+02
 -10.536  0.2051E-22  0.1200E+02
 -10.526  0.2343E-22  0.1200E+02
 -10.516  0.2791E-22  0.1200E+02
 -10.506  0.3423E-22  0.1200E+02
 -10.496  0.4278E-22  0.1200E+02
 -10.486  0.5410E-22  0.1200E+02
 -10.476  0.6888E-22  0.1200E+02
 -10.466  0.8804E-22  0.1200E+02
 -10.456  0.1128E-21  0.1200E+02
 -10.446  0.1446E-21  0.1200E+02
 -10.436  0.1854E-21  0.1200E+02
 -10.426  0.2378E-21  0.1200E+02
 -10.416  0.3048E-21  0.1200E+02
 -10.406  0.3905E-21  0.1200E+02
 -10.396  0.5001E-21  0.1200E+02
 -10.386  0.6401E-21  0.1200E+02
 -10.376  0.8188E-21  0.1200E+02
 -10.366  0.1047E-20  0.1200E+02
 -10.356  0.1337E-20  0.1200E+02
 -10.346  0.1707E-20  0.1200E+02
 -10.336  0.2178E-20  0.1200E+02
 -10.326  0.2777E-20  0.1200E+02
 -10.316  0.3538E-20  0.1200E+02
 -10.306  0.4504E-20  0.1200E+02
 -10.296  0.5732E-20  0.1200E+02
 -10.286  0.7289E-20  0.1200E+02
 -10.276  0.9262E-20  0.1200E+02
 -10.266  0.1176E-19  0.1200E+02
 -10.256  0.1493E-19  0.1200E+02
 -10.246  0.1893E-19  0.1200E+02
 -10.236  0.2400E-19  0.1200E+02
 -10.226  0.3040E-19  0.1200E+02
 -10.216  0.3847E-19  0.1200E+02
 -10.206  0.4867E-19  0.1200E+02
 -10.196  0.6152E-19  0.1200E+02
 -10.186  0.7772E-19  0.1200E+02
 -10.176  0.9812E-19  0.1200E+02
 -10.166  0.1238E-18  0.1200E+02
 -10.156  0.1561E-18  0.1200E+02
 -10.146  0.1967E-18  0.1200E+02
 -10.136  0.2476E-18  0.1200E+02
 -10.126  0.3116E-18  0.1200E+02
 -10.116  0.3918E-18  0.1200E+02
 -10.106  0.4924E-18  0.1200E+02
 -10.096  0.6184E-18  0.1200E+02
 -10.086  0.7761E-18  0.1200E+02
 -10.076  0.9734E-18  0.1200E+02
 -10.066  0.1220E-17  0.1200E+02
 -10.056  0.1528E-17  0.1200E+02
 -10.046  0.1913E-17  0.1200E+02
 -10.036  0.2393E-17  0.1200E+02
 -10.026  0.2991E-17  0.1200E+02
 -10.016  0.3737E-17  0.1200E+02
 -10.006  0.4666E-17  0.1200E+02
  -9.996  0.5821E-17  0.1200E+02
  -9.986  0.7258E-17  0.1200E+02
  -9.976  0.9044E-17  0.1200E+02
  -9.966  0.1126E-16  0.1200E+02
  -9.956  0.1401E-16  0.1200E+02
  -9.946  0.1743E-16  0.1200E+02
  -9.936  0.2166E-16  0.1200E+02
  -9.926  0.2690E-16  0.1200E+02
  -9.916  0.3338E-16  0.1200E+02
  -9.906  0.4141E-16  0.1200E+02
  -9.896  0.5132E-16  0.1200E+02
  -9.886  0.6357E-16  0.1200E+02
  -9.876  0.7870E-16  0.1200E+02
  -9.866  0.9736E-16  0.1200E+02
  -9.856  0.1204E-15  0.1200E+02
  -9.846  0.1487E-15  0.1200E+02
  -9.836  0.1836E-15  0.1200E+02
  -9.826  0.2265E-15  0.1200E+02
  -9.816  0.2793E-15  0.1200E+02
  -9.806  0.3442E-15  0.1200E+02
  -9.796  0.4238E-15  0.1200E+02
  -9.786  0.5216E-15  0.1200E+02
  -9.776  0.6415E-15  0.1200E+02
  -9.766  0.7884E-15  0.1200E+02
  -9.756  0.9683E-15  0.1200E+02
  -9.746  0.1188E-14  0.1200E+02
  -9.736  0.1458E-14  0.1200E+02
  -9.726  0.1787E-14  0.1200E+02
  -9.716  0.2189E-14  0.1200E+02
  -9.706  0.2680E-14  0.1200E+02
  -9.696  0.3279E-14  0.1200E+02
  -9.686  0.4009E-14  0.1200E+02
  -9.676  0.4898E-14  0.1200E+02
  -9.666  0.5980E-14  0.1200E+02
  -9.656  0.7298E-14  0.1200E+02
  -9.646  0.8899E-14  0.1200E+02
  -9.636  0.1084E-13  0.1200E+02
  -9.626  0.1321E-13  0.1200E+02
  -9.616  0.1607E-13  0.1200E+02
  -9.606  0.1955E-13  0.1200E+02
  -9.596  0.2376E-13  0.1200E+02
  -9.586  0.2886E-13  0.1200E+02
  -9.576  0.3504E-13  0.1200E+02
  -9.566  0.4250E-13  0.1200E+02
  -9.556  0.5153E-13  0.1200E+02
  -9.546  0.6242E-13  0.1200E+02
  -9.536  0.7558E-13  0.1200E+02
  -9.526  0.9144E-13  0.1200E+02
  -9.516  0.1106E-12  0.1200E+02
  -9.506  0.1336E-12  0.1200E+02
  -9.496  0.1613E-12  0.1200E+02
  -9.486  0.1947E-12  0.1200E+02
  -9.476  0.2348E-12  0.1200E+02
  -9.466  0.2830E-12  0.1200E+02
  -9.456  0.3409E-12  0.1200E+02
  -9.446  0.4103E-12  0.1200E+02
  -9.436  0.4935E-12  0.1200E+02
  -9.426  0.5933E-12  0.1200E+02
  -9.416  0.7127E-12  0.1200E+02
  -9.406  0.8556E-12  0.1200E+02
  -9.396  0.1026E-11  0.1200E+02
  -9.386  0.1231E-11  0.1200E+02
  -9.376  0.1475E-11  0.1200E+02
  -9.366  0.1766E-11  0.1200E+02
  -9.356  0.2113E-11  0.1200E+02
  -9.346  0.2527E-11  0.1200E+02
  -9.336  0.3020E-11  0.1200E+02
  -9.326  0.3607E-11  0.1200E+02
  -9.316  0.4305E-11  0.1200E+02
  -9.306  0.5134E-11  0.1200E+02
  -9.296  0.6120E-11  0.1200E+02
  -9.286  0.7290E-11  0.1200E+02
  -9.276  0.8679E-11  0.1200E+02
  -9.266  0.1032E-10  0.1200E+02
  -9.256  0.1228E-10  0.1200E+02
  -9.246  0.1458E-10  0.1200E+02
  -9.236  0.1732E-10  0.1200E+02
  -9.226  0.2055E-10  0.1200E+02
  -9.216  0.2437E-10  0.1200E+02
  -9.206  0.2888E-10  0.1200E+02
  -9.196  0.3420E-10  0.1200E+02
  -9.186  0.4047E-10  0.1200E+02
  -9.176  0.4787E-10  0.1200E+02
  -9.166  0.5658E-10  0.1200E+02
  -9.156  0.6683E-10  0.1200E+02
  -9.146  0.7890E-10  0.1200E+02
  -9.136  0.9307E-10  0.1200E+02
  -9.126  0.1097E-09  0.1200E+02
  -9.116  0.1293E-09  0.1200E+02
  -9.106  0.1522E-09  0.1200E+02
  -9.096  0.1791E-09  0.1200E+02
  -9.086  0.2106E-09  0.1200E+02
  -9.076  0.2475E-09  0.1200E+02
  -9.066  0.2906E-09  0.1200E+02
  -9.056  0.3411E-09  0.1200E+02
  -9.046  0.4001E-09  0.1200E+02
  -9.036  0.4689E-09  0.1200E+02
  -9.026  0.5493E-09  0.1200E+02
  -9.016  0.6430E-09  0.1200E+02
  -9.006  0.7522E-09  0.1200E+02
  -8.996  0.8794E-09  0.1200E+02
  -8.986  0.1027E-08  0.1200E+02
  -8.976  0.1200E-08  0.1200E+02
  -8.966  0.1400E-08  0.1200E+02
  -8.956  0.1632E-08  0.1200E+02
  -8.946  0.1902E-08  0.1200E+02
  -8.936  0.2215E-08  0.1200E+02
  -8.926  0.2578E-08  0.1200E+02
  -8.916  0.2998E-08  0.1200E+02
  -8.906  0.3485E-08  0.1200E+02
  -8.896  0.4048E-08  0.1200E+02
  -8.886  0.4699E-08  0.1200E+02
  -8.876  0.5452E-08  0.1200E+02
  -8.866  0.6320E-08  0.1200E+02
  -8.856  0.7323E-08  0.1200E+02
  -8.846  0.8479E-08  0.1200E+02
  -8.836  0.9811E-08  0.1200E+02
  -8.826  0.1135E-07  0.1200E+02
  -8.816  0.1311E-07  0.1200E+02
  -8.806  0.1514E-07  0.1200E+02
  -8.796  0.1748E-07  0.1200E+02
  -8.786  0.2016E-07  0.1200E+02
  -8.776  0.2324E-07  0.1200E+02
  -8.766  0.2677E-07  0.1200E+02
  -8.756  0.3081E-07  0.1200E+02
  -8.746  0.3545E-07  0.1200E+02
  -8.736  0.4076E-07  0.1200E+02
  -8.726  0.4683E-07  0.1200E+02
  -8.716  0.5377E-07  0.1200E+02
  -8.706  0.6171E-07  0.1200E+02
  -8.696  0.7077E-07  0.1200E+02
  -8.686  0.8110E-07  0.1200E+02
  -8.676  0.9289E-07  0.1200E+02
  -8.666  0.1063E-06  0.1200E+02
  -8.656  0.1216E-06  0.1200E+02
  -8.646  0.1390E-06  0.1200E+02
  -8.636  0.1588E-06  0.1200E+02
  -8.626  0.1813E-06  0.1200E+02
  -8.616  0.2069E-06  0.1200E+02
  -8.606  0.2359E-06  0.1200E+02
  -8.596  0.2688E-06  0.1200E+02
  -8.586  0.3062E-06  0.1200E+02
  -8.576  0.3484E-06  0.1200E+02
  -8.566  0.3963E-06  0.1200E+02
  -8.556  0.4504E-06  0.1200E+02
  -8.546  0.5117E-06  0.1200E+02
  -8.536  0.5808E-06  0.1200E+02
  -8.526  0.6590E-06  0.1200E+02
  -8.516  0.7471E-06  0.1200E+02
  -8.506  0.8465E-06  0.1200E+02
  -8.496  0.9585E-06  0.1200E+02
  -8.486  0.1085E-05  0.1200E+02
  -8.476  0.1227E-05  0.1200E+02
  -8.466  0.1386E-05  0.1200E+02
  -8.456  0.1566E-05  0.1200E+02
  -8.446  0.1767E-05  0.1200E+02
  -8.436  0.1994E-05  0.1200E+02
  -8.426  0.2248E-05  0.1200E+02
  -8.416  0.2532E-05  0.1200E+02
  -8.406  0.2851E-05  0.1200E+02
  -8.396  0.3208E-05  0.1200E+02
  -8.386  0.3607E-05  0.1200E+02
  -8.376  0.4054E-05  0.1200E+02
  -8.366  0.4553E-05  0.1200E+02
  -8.356  0.5110E-05  0.1200E+02
  -8.346  0.5732E-05  0.1200E+02
  -8.336  0.6426E-05  0.1200E+02
  -8.326  0.7199E-05  0.1200E+02
  -8.316  0.8059E-05  0.1200E+02
  -8.306  0.9018E-05  0.1200E+02
  -8.296  0.1008E-04  0.1200E+02
  -8.286  0.1127E-04  0.1200E+02
  -8.276  0.1258E-04  0.1200E+02
  -8.266  0.1405E-04  0.1200E+02
  -8.256  0.1567E-04  0.1200E+02
  -8.246  0.1746E-04  0.1200E+02
  -8.236  0.1945E-04  0.1200E+02
  -8.226  0.2166E-04  0.1200E+02
  -8.216  0.2410E-04  0.1200E+02
  -8.206  0.2680E-04  0.1200E+02
  -8.196  0.2978E-04  0.1200E+02
  -8.186  0.3307E-04  0.1200E+02
  -8.176  0.3671E-04  0.1200E+02
  -8.166  0.4072E-04  0.1200E+02
  -8.156  0.4513E-04  0.1200E+02
  -8.146  0.5000E-04  0.1200E+02
  -8.136  0.5536E-04  0.1200E+02
  -8.126  0.6125E-04  0.1200E+02
  -8.116  0.6774E-04  0.1200E+02
  -8.106  0.7486E-04  0.1200E+02
  -8.096  0.8268E-04  0.1200E+02
  -8.086  0.9125E-04  0.1200E+02
  -8.076  0.1007E-03  0.1200E+02
  -8.066  0.1110E-03  0.1200E+02
  -8.056  0.1223E-03  0.1200E+02
  -8.046  0.1346E-03  0.1200E+02
  -8.036  0.1481E-03  0.1200E+02
  -8.026  0.1629E-03  0.1200E+02
  -8.016  0.1791E-03  0.1200E+02
  -8.006  0.1967E-03  0.1200E+02
  -7.996  0.2159E-03  0.1200E+02
  -7.986  0.2369E-03  0.1200E+02
  -7.976  0.2597E-03  0.1200E+02
  -7.966  0.2846E-03  0.1200E+02
  -7.956  0.3117E-03  0.1200E+02
  -7.946  0.3411E-03  0.1200E+02
  -7.936  0.3731E-03  0.1200E+02
  -7.926  0.4079E-03  0.1200E+02
  -7.916  0.4456E-03  0.1200E+02
  -7.906  0.4865E-03  0.1200E+02
  -7.896  0.5309E-03  0.1200E+02
  -7.886  0.5789E-03  0.1200E+02
  -7.876  0.6310E-03  0.1200E+02
  -7.866  0.6873E-03  0.1200E+02
  -7.856  0.7482E-03  0.1200E+02
  -7.846  0.8140E-03  0.1200E+02
  -7.836  0.8851E-03  0.1200E+02
  -7.826  0.9618E-03  0.1200E+02
  -7.816  0.1045E-02  0.1200E+02
  -7.806  0.1134E-02  0.1200E+02
  -7.796  0.1230E-02  0.1200E+02
  -7.786  0.1333E-02  0.1200E+02
  -7.776  0.1445E-02  0.1200E+02
  -7.766  0.1564E-02  0.1200E+02
  -7.756  0.1693E-02  0.1200E+02
  -7.746  0.1831E-02  0.1200E+02
  -7.736  0.1980E-02  0.1200E+02
  -7.726  0.2139E-02  0.1200E+02
  -7.716  0.2309E-02  0.1200E+02
  -7.706  0.2492E-02  0.1200E+02
  -7.696  0.2688E-02  0.1200E+02
  -7.686  0.2897E-02  0.1200E+02
  -7.676  0.3121E-02  0.1200E+02
  -7.666  0.3361E-02  0.1200E+02
  -7.656  0.3616E-02  0.1200E+02
  -7.646  0.3889E-02  0.1200E+02
  -7.636  0.4181E-02  0.1200E+02
  -7.626  0.4491E-02  0.1200E+02
  -7.616  0.4822E-02  0.1200E+02
  -7.606  0.5174E-02  0.1200E+02
  -7.596  0.5549E-02  0.1200E+02
  -7.586  0.5948E-02  0.1200E+02
  -7.576  0.6372E-02  0.1200E+02
  -7.566  0.6823E-02  0.1200E+02
  -7.556  0.7301E-02  0.1200E+02
  -7.546  0.7809E-02  0.1200E+02
  -7.536  0.8348E-02  0.1200E+02
  -7.526  0.8918E-02  0.1200E+02
  -7.516  0.9523E-02  0.1200E+02
  -7.506  0.1016E-01  0.1200E+02
  -7.496  0.1084E-01  0.1200E+02
  -7.486  0.1156E-01  0.1200E+02
  -7.476  0.1231E-01  0.1200E+02
  -7.466  0.1311E-01  0.1200E+02
  -7.456  0.1396E-01  0.1200E+02
  -7.446  0.1485E-01  0.1200E+02
  -7.436  0.1579E-01  0.1200E+02
  -7.426  0.1678E-01  0.1200E+02
  -7.416  0.1782E-01  0.1200E+02
  -7.406  0.1892E-01  0.1200E+02
  -7.396  0.2008E-01  0.1200E+02
  -7.386  0.2129E-01  0.1200E+02
  -7.376  0.2257E-01  0.1200E+02
  -7.366  0.2391E-01  0.1200E+02
  -7.356  0.2532E-01  0.1200E+02
  -7.346  0.2680E-01  0.1200E+02
  -7.336  0.2835E-01  0.1200E+02
  -7.326  0.2998E-01  0.1200E+02
  -7.316  0.3169E-01  0.1201E+02
  -7.306  0.3347E-01  0.1201E+02
  -7.296  0.3534E-01  0.1201E+02
  -7.286  0.3730E-01  0.1201E+02
  -7.276  0.3934E-01  0.1201E+02
  -7.266  0.4148E-01  0.1201E+02
  -7.256  0.4371E-01  0.1201E+02
  -7.246  0.4604E-01  0.1201E+02
  -7.236  0.4847E-01  0.1201E+02
  -7.226  0.5101E-01  0.1201E+02
  -7.216  0.5366E-01  0.1201E+02
  -7.206  0.5641E-01  0.1201E+02
  -7.196  0.5929E-01  0.1201E+02
  -7.186  0.6228E-01  0.1201E+02
  -7.176  0.6539E-01  0.1201E+02
  -7.166  0.6863E-01  0.1201E+02
  -7.156  0.7199E-01  0.1201E+02
  -7.146  0.7549E-01  0.1201E+02
  -7.136  0.7913E-01  0.1201E+02
  -7.126  0.8290E-01  0.1202E+02
  -7.116  0.8682E-01  0.1202E+02
  -7.106  0.9089E-01  0.1202E+02
  -7.096  0.9510E-01  0.1202E+02
  -7.086  0.9947E-01  0.1202E+02
  -7.076  0.1040E+00  0.1202E+02
  -7.066  0.1087E+00  0.1202E+02
  -7.056  0.1136E+00  0.1202E+02
  -7.046  0.1186E+00  0.1202E+02
  -7.036  0.1238E+00  0.1203E+02
  -7.026  0.1292E+00  0.1203E+02
  -7.016  0.1347E+00  0.1203E+02
  -7.006  0.1405E+00  0.1203E+02
  -6.996  0.1464E+00  0.1203E+02
  -6.986  0.1525E+00  0.1203E+02
  -6.976  0.1589E+00  0.1203E+02
  -6.966  0.1654E+00  0.1204E+02
  -6.956  0.1721E+00  0.1204E+02
  -6.946  0.1791E+00  0.1204E+02
  -6.936  0.1862E+00  0.1204E+02
  -6.926  0.1936E+00  0.1204E+02
  -6.916  0.2012E+00  0.1204E+02
  -6.906  0.2091E+00  0.1205E+02
  -6.896  0.2171E+00  0.1205E+02
  -6.886  0.2254E+00  0.1205E+02
  -6.876  0.2339E+00  0.1205E+02
  -6.866  0.2427E+00  0.1206E+02
  -6.856  0.2517E+00  0.1206E+02
  -6.846  0.2610E+00  0.1206E+02
  -6.836  0.2705E+00  0.1206E+02
  -6.826  0.2803E+00  0.1207E+02
  -6.816  0.2903E+00  0.1207E+02
  -6.806  0.3007E+00  0.1207E+02
  -6.796  0.3112E+00  0.1208E+02
  -6.786  0.3221E+00  0.1208E+02
  -6.776  0.3332E+00  0.1208E+02
  -6.766  0.3446E+00  0.1209E+02
  -6.756  0.3563E+00  0.1209E+02
  -6.746  0.3682E+00  0.1209E+02
  -6.736  0.3805E+00  0.1210E+02
  -6.726  0.3930E+00  0.1210E+02
  -6.716  0.4059E+00  0.1210E+02
  -6.706  0.4190E+00  0.1211E+02
  -6.696  0.4324E+00  0.1211E+02
  -6.686  0.4461E+00  0.1212E+02
  -6.676  0.4602E+00  0.1212E+02
  -6.666  0.4745E+00  0.1213E+02
  -6.656  0.4891E+00  0.1213E+02
  -6.646  0.5040E+00  0.1214E+02
  -6.636  0.5193E+00  0.1214E+02
  -6.626  0.5348E+00  0.1215E+02
  -6.616  0.5507E+00  0.1215E+02
  -6.606  0.5668E+00  0.1216E+02
  -6.596  0.5833E+00  0.1216E+02
  -6.586  0.6000E+00  0.1217E+02
  -6.576  0.6171E+00  0.1218E+02
  -6.566  0.6344E+00  0.1218E+02
  -6.556  0.6520E+00  0.1219E+02
  -6.546  0.6700E+00  0.1220E+02
  -6.536  0.6882E+00  0.1220E+02
  -6.526  0.7067E+00  0.1221E+02
  -6.516  0.7255E+00  0.1222E+02
  -6.506  0.7445E+00  0.1222E+02
  -6.496  0.7638E+00  0.1223E+02
  -6.486  0.7834E+00  0.1224E+02
  -6.476  0.8032E+00  0.1225E+02
  -6.466  0.8233E+00  0.1226E+02
  -6.456  0.8436E+00  0.1227E+02
  -6.446  0.8642E+00  0.1227E+02
  -6.436  0.8849E+00  0.1228E+02
  -6.426  0.9059E+00  0.1229E+02
  -6.416  0.9271E+00  0.1230E+02
  -6.406  0.9484E+00  0.1231E+02
  -6.396  0.9699E+00  0.1232E+02
  -6.386  0.9916E+00  0.1233E+02
  -6.376  0.1013E+01  0.1234E+02
  -6.366  0.1035E+01  0.1235E+02
  -6.356  0.1057E+01  0.1236E+02
  -6.346  0.1080E+01  0.1237E+02
  -6.336  0.1102E+01  0.1238E+02
  -6.326  0.1124E+01  0.1239E+02
  -6.316  0.1147E+01  0.1241E+02
  -6.306  0.1169E+01  0.1242E+02
  -6.296  0.1191E+01  0.1243E+02
  -6.286  0.1214E+01  0.1244E+02
  -6.276  0.1236E+01  0.1245E+02
  -6.266  0.1258E+01  0.1247E+02
  -6.256  0.1281E+01  0.1248E+02
  -6.246  0.1303E+01  0.1249E+02
  -6.236  0.1325E+01  0.1251E+02
  -6.226  0.1347E+01  0.1252E+02
  -6.216  0.1368E+01  0.1253E+02
  -6.206  0.1390E+01  0.1255E+02
  -6.196  0.1411E+01  0.1256E+02
  -6.186  0.1432E+01  0.1257E+02
  -6.176  0.1453E+01  0.1259E+02
  -6.166  0.1474E+01  0.1260E+02
  -6.156  0.1494E+01  0.1262E+02
  -6.146  0.1514E+01  0.1263E+02
  -6.136  0.1533E+01  0.1265E+02
  -6.126  0.1553E+01  0.1267E+02
  -6.116  0.1571E+01  0.1268E+02
  -6.106  0.1590E+01  0.1270E+02
  -6.096  0.1608E+01  0.1271E+02
  -6.086  0.1625E+01  0.1273E+02
  -6.076  0.1642E+01  0.1275E+02
  -6.066  0.1658E+01  0.1276E+02
  -6.056  0.1674E+01  0.1278E+02
  -6.046  0.1690E+01  0.1280E+02
  -6.036  0.1704E+01  0.1281E+02
  -6.026  0.1718E+01  0.1283E+02
  -6.016  0.1732E+01  0.1285E+02
  -6.006  0.1745E+01  0.1286E+02
  -5.996  0.1757E+01  0.1288E+02
  -5.986  0.1769E+01  0.1290E+02
  -5.976  0.1780E+01  0.1292E+02
  -5.966  0.1790E+01  0.1294E+02
  -5.956  0.1799E+01  0.1295E+02
  -5.946  0.1808E+01  0.1297E+02
  -5.936  0.1816E+01  0.1299E+02
  -5.926  0.1824E+01  0.1301E+02
  -5.916  0.1831E+01  0.1303E+02
  -5.906  0.1836E+01  0.1304E+02
  -5.896  0.1842E+01  0.1306E+02
  -5.886  0.1846E+01  0.1308E+02
  -5.876  0.1850E+01  0.1310E+02
  -5.866  0.1853E+01  0.1312E+02
  -5.856  0.1855E+01  0.1314E+02
  -5.846  0.1857E+01  0.1316E+02
  -5.836  0.1858E+01  0.1317E+02
  -5.826  0.1858E+01  0.1319E+02
  -5.816  0.1857E+01  0.1321E+02
  -5.806  0.1856E+01  0.1323E+02
  -5.796  0.1854E+01  0.1325E+02
  -5.786  0.1851E+01  0.1327E+02
  -5.776  0.1848E+01  0.1329E+02
  -5.766  0.1844E+01  0.1330E+02
  -5.756  0.1839E+01  0.1332E+02
  -5.746  0.1834E+01  0.1334E+02
  -5.736  0.1829E+01  0.1336E+02
  -5.726  0.1822E+01  0.1338E+02
  -5.716  0.1816E+01  0.1340E+02
  -5.706  0.1808E+01  0.1341E+02
  -5.696  0.1801E+01  0.1343E+02
  -5.686  0.1792E+01  0.1345E+02
  -5.676  0.1784E+01  0.1347E+02
  -5.666  0.1775E+01  0.1348E+02
  -5.656  0.1765E+01  0.1350E+02
  -5.646  0.1756E+01  0.1352E+02
  -5.636  0.1746E+01  0.1354E+02
  -5.626  0.1735E+01  0.1356E+02
  -5.616  0.1725E+01  0.1357E+02
  -5.606  0.1714E+01  0.1359E+02
  -5.596  0.1704E+01  0.1361E+02
  -5.586  0.1693E+01  0.1362E+02
  -5.576  0.1682E+01  0.1364E+02
  -5.566  0.1670E+01  0.1366E+02
  -5.556  0.1659E+01  0.1367E+02
  -5.546  0.1648E+01  0.1369E+02
  -5.536  0.1637E+01  0.1371E+02
  -5.526  0.1626E+01  0.1372E+02
  -5.516  0.1615E+01  0.1374E+02
  -5.506  0.1604E+01  0.1375E+02
  -5.496  0.1594E+01  0.1377E+02
  -5.486  0.1583E+01  0.1379E+02
  -5.476  0.1573E+01  0.1380E+02
  -5.466  0.1563E+01  0.1382E+02
  -5.456  0.1554E+01  0.1383E+02
  -5.446  0.1544E+01  0.1385E+02
  -5.436  0.1535E+01  0.1386E+02
  -5.426  0.1527E+01  0.1388E+02
  -5.416  0.1519E+01  0.1389E+02
  -5.406  0.1511E+01  0.1391E+02
  -5.396  0.1504E+01  0.1392E+02
  -5.386  0.1497E+01  0.1394E+02
  -5.376  0.1490E+01  0.1395E+02
  -5.366  0.1484E+01  0.1397E+02
  -5.356  0.1479E+01  0.1398E+02
  -5.346  0.1474E+01  0.1400E+02
  -5.336  0.1470E+01  0.1401E+02
  -5.326  0.1466E+01  0.1403E+02
  -5.316  0.1463E+01  0.1404E+02
  -5.306  0.1460E+01  0.1406E+02
  -5.296  0.1458E+01  0.1407E+02
  -5.286  0.1456E+01  0.1409E+02
  -5.276  0.1455E+01  0.1410E+02
  -5.266  0.1455E+01  0.1412E+02
  -5.256  0.1455E+01  0.1413E+02
  -5.246  0.1456E+01  0.1415E+02
  -5.236  0.1457E+01  0.1416E+02
  -5.226  0.1459E+01  0.1417E+02
  -5.216  0.1461E+01  0.1419E+02
  -5.206  0.1464E+01  0.1420E+02
  -5.196  0.1468E+01  0.1422E+02
  -5.186  0.1472E+01  0.1423E+02
  -5.176  0.1476E+01  0.1425E+02
  -5.166  0.1481E+01  0.1426E+02
  -5.156  0.1487E+01  0.1428E+02
  -5.146  0.1493E+01  0.1429E+02
  -5.136  0.1499E+01  0.1431E+02
  -5.126  0.1506E+01  0.1432E+02
  -5.116  0.1513E+01  0.1434E+02
  -5.106  0.1520E+01  0.1435E+02
  -5.096  0.1528E+01  0.1437E+02
  -5.086  0.1536E+01  0.1438E+02
  -5.076  0.1545E+01  0.1440E+02
  -5.066  0.1554E+01  0.1441E+02
  -5.056  0.1563E+01  0.1443E+02
  -5.046  0.1572E+01  0.1445E+02
  -5.036  0.1581E+01  0.1446E+02
  -5.026  0.1591E+01  0.1448E+02
  -5.016  0.1600E+01  0.1449E+02
  -5.006  0.1610E+01  0.1451E+02
  -4.996  0.1620E+01  0.1453E+02
  -4.986  0.1630E+01  0.1454E+02
  -4.976  0.1640E+01  0.1456E+02
  -4.966  0.1650E+01  0.1457E+02
  -4.956  0.1660E+01  0.1459E+02
  -4.946  0.1670E+01  0.1461E+02
  -4.936  0.1679E+01  0.1462E+02
  -4.926  0.1689E+01  0.1464E+02
  -4.916  0.1698E+01  0.1466E+02
  -4.906  0.1708E+01  0.1468E+02
  -4.896  0.1717E+01  0.1469E+02
  -4.886  0.1726E+01  0.1471E+02
  -4.876  0.1734E+01  0.1473E+02
  -4.866  0.1743E+01  0.1475E+02
  -4.856  0.1751E+01  0.1476E+02
  -4.846  0.1759E+01  0.1478E+02
  -4.836  0.1766E+01  0.1480E+02
  -4.826  0.1773E+01  0.1482E+02
  -4.816  0.1780E+01  0.1483E+02
  -4.806  0.1787E+01  0.1485E+02
  -4.796  0.1793E+01  0.1487E+02
  -4.786  0.1798E+01  0.1489E+02
  -4.776  0.1804E+01  0.1491E+02
  -4.766  0.1809E+01  0.1492E+02
  -4.756  0.1813E+01  0.1494E+02
  -4.746  0.1817E+01  0.1496E+02
  -4.736  0.1821E+01  0.1498E+02
  -4.726  0.1824E+01  0.1500E+02
  -4.716  0.1827E+01  0.1501E+02
  -4.706  0.1829E+01  0.1503E+02
  -4.696  0.1831E+01  0.1505E+02
  -4.686  0.1832E+01  0.1507E+02
  -4.676  0.1833E+01  0.1509E+02
  -4.666  0.1834E+01  0.1511E+02
  -4.656  0.1834E+01  0.1512E+02
  -4.646  0.1834E+01  0.1514E+02
  -4.636  0.1834E+01  0.1516E+02
  -4.626  0.1833E+01  0.1518E+02
  -4.616  0.1832E+01  0.1520E+02
  -4.606  0.1830E+01  0.1522E+02
  -4.596  0.1828E+01  0.1523E+02
  -4.586  0.1826E+01  0.1525E+02
  -4.576  0.1823E+01  0.1527E+02
  -4.566  0.1820E+01  0.1529E+02
  -4.556  0.1817E+01  0.1531E+02
  -4.546  0.1814E+01  0.1533E+02
  -4.536  0.1810E+01  0.1534E+02
  -4.526  0.1806E+01  0.1536E+02
  -4.516  0.1803E+01  0.1538E+02
  -4.506  0.1798E+01  0.1540E+02
  -4.496  0.1794E+01  0.1542E+02
  -4.486  0.1790E+01  0.1543E+02
  -4.476  0.1785E+01  0.1545E+02
  -4.466  0.1781E+01  0.1547E+02
  -4.456  0.1776E+01  0.1549E+02
  -4.446  0.1772E+01  0.1550E+02
  -4.436  0.1767E+01  0.1552E+02
  -4.426  0.1763E+01  0.1554E+02
  -4.416  0.1758E+01  0.1556E+02
  -4.406  0.1754E+01  0.1557E+02
  -4.396  0.1750E+01  0.1559E+02
  -4.386  0.1745E+01  0.1561E+02
  -4.376  0.1741E+01  0.1563E+02
  -4.366  0.1738E+01  0.1564E+02
  -4.356  0.1734E+01  0.1566E+02
  -4.346  0.1730E+01  0.1568E+02
  -4.336  0.1727E+01  0.1570E+02
  -4.326  0.1724E+01  0.1571E+02
  -4.316  0.1721E+01  0.1573E+02
  -4.306  0.1719E+01  0.1575E+02
  -4.296  0.1717E+01  0.1577E+02
  -4.286  0.1715E+01  0.1578E+02
  -4.276  0.1713E+01  0.1580E+02
  -4.266  0.1712E+01  0.1582E+02
  -4.256  0.1711E+01  0.1583E+02
  -4.246  0.1710E+01  0.1585E+02
  -4.236  0.1710E+01  0.1587E+02
  -4.226  0.1710E+01  0.1588E+02
  -4.216  0.1711E+01  0.1590E+02
  -4.206  0.1712E+01  0.1592E+02
  -4.196  0.1713E+01  0.1594E+02
  -4.186  0.1714E+01  0.1595E+02
  -4.176  0.1716E+01  0.1597E+02
  -4.166  0.1719E+01  0.1599E+02
  -4.156  0.1721E+01  0.1600E+02
  -4.146  0.1724E+01  0.1602E+02
  -4.136  0.1728E+01  0.1604E+02
  -4.126  0.1732E+01  0.1606E+02
  -4.116  0.1736E+01  0.1607E+02
  -4.106  0.1740E+01  0.1609E+02
  -4.096  0.1745E+01  0.1611E+02
  -4.086  0.1751E+01  0.1613E+02
  -4.076  0.1756E+01  0.1614E+02
  -4.066  0.1762E+01  0.1616E+02
  -4.056  0.1769E+01  0.1618E+02
  -4.046  0.1775E+01  0.1620E+02
  -4.036  0.1782E+01  0.1621E+02
  -4.026  0.1789E+01  0.1623E+02
  -4.016  0.1797E+01  0.1625E+02
  -4.006  0.1805E+01  0.1627E+02
  -3.996  0.1813E+01  0.1629E+02
  -3.986  0.1821E+01  0.1631E+02
  -3.976  0.1830E+01  0.1632E+02
  -3.966  0.1839E+01  0.1634E+02
  -3.956  0.1848E+01  0.1636E+02
  -3.946  0.1857E+01  0.1638E+02
  -3.936  0.1867E+01  0.1640E+02
  -3.926  0.1877E+01  0.1642E+02
  -3.916  0.1887E+01  0.1644E+02
  -3.906  0.1897E+01  0.1645E+02
  -3.896  0.1907E+01  0.1647E+02
  -3.886  0.1918E+01  0.1649E+02
  -3.876  0.1929E+01  0.1651E+02
  -3.866  0.1940E+01  0.1653E+02
  -3.856  0.1951E+01  0.1655E+02
  -3.846  0.1963E+01  0.1657E+02
  -3.836  0.1975E+01  0.1659E+02
  -3.826  0.1986E+01  0.1661E+02
  -3.816  0.1999E+01  0.1663E+02
  -3.806  0.2011E+01  0.1665E+02
  -3.796  0.2023E+01  0.1667E+02
  -3.786  0.2036E+01  0.1669E+02
  -3.776  0.2049E+01  0.1671E+02
  -3.766  0.2062E+01  0.1673E+02
  -3.756  0.2076E+01  0.1675E+02
  -3.746  0.2090E+01  0.1677E+02
  -3.736  0.2104E+01  0.1679E+02
  -3.726  0.2118E+01  0.1682E+02
  -3.716  0.2132E+01  0.1684E+02
  -3.706  0.2147E+01  0.1686E+02
  -3.696  0.2162E+01  0.1688E+02
  -3.686  0.2178E+01  0.1690E+02
  -3.676  0.2194E+01  0.1692E+02
  -3.666  0.2210E+01  0.1695E+02
  -3.656  0.2227E+01  0.1697E+02
  -3.646  0.2244E+01  0.1699E+02
  -3.636  0.2262E+01  0.1701E+02
  -3.626  0.2280E+01  0.1704E+02
  -3.616  0.2298E+01  0.1706E+02
  -3.606  0.2317E+01  0.1708E+02
  -3.596  0.2337E+01  0.1711E+02
  -3.586  0.2357E+01  0.1713E+02
  -3.576  0.2377E+01  0.1715E+02
  -3.566  0.2399E+01  0.1718E+02
  -3.556  0.2420E+01  0.1720E+02
  -3.546  0.2443E+01  0.1723E+02
  -3.536  0.2466E+01  0.1725E+02
  -3.526  0.2490E+01  0.1728E+02
  -3.516  0.2514E+01  0.1730E+02
  -3.506  0.2540E+01  0.1733E+02
  -3.496  0.2566E+01  0.1735E+02
  -3.486  0.2592E+01  0.1738E+02
  -3.476  0.2620E+01  0.1740E+02
  -3.466  0.2648E+01  0.1743E+02
  -3.456  0.2677E+01  0.1746E+02
  -3.446  0.2707E+01  0.1748E+02
  -3.436  0.2738E+01  0.1751E+02
  -3.426  0.2769E+01  0.1754E+02
  -3.416  0.2802E+01  0.1757E+02
  -3.406  0.2835E+01  0.1760E+02
  -3.396  0.2869E+01  0.1762E+02
  -3.386  0.2904E+01  0.1765E+02
  -3.376  0.2940E+01  0.1768E+02
  -3.366  0.2976E+01  0.1771E+02
  -3.356  0.3014E+01  0.1774E+02
  -3.346  0.3052E+01  0.1777E+02
  -3.336  0.3091E+01  0.1780E+02
  -3.326  0.3131E+01  0.1783E+02
  -3.316  0.3172E+01  0.1787E+02
  -3.306  0.3213E+01  0.1790E+02
  -3.296  0.3255E+01  0.1793E+02
  -3.286  0.3298E+01  0.1796E+02
  -3.276  0.3342E+01  0.1800E+02
  -3.266  0.3387E+01  0.1803E+02
  -3.256  0.3432E+01  0.1807E+02
  -3.246  0.3477E+01  0.1810E+02
  -3.236  0.3524E+01  0.1814E+02
  -3.226  0.3571E+01  0.1817E+02
  -3.216  0.3618E+01  0.1821E+02
  -3.206  0.3666E+01  0.1824E+02
  -3.196  0.3714E+01  0.1828E+02
  -3.186  0.3763E+01  0.1832E+02
  -3.176  0.3812E+01  0.1836E+02
  -3.166  0.3861E+01  0.1840E+02
  -3.156  0.3911E+01  0.1843E+02
  -3.146  0.3960E+01  0.1847E+02
  -3.136  0.4010E+01  0.1851E+02
  -3.126  0.4060E+01  0.1856E+02
  -3.116  0.4110E+01  0.1860E+02
  -3.106  0.4160E+01  0.1864E+02
  -3.096  0.4210E+01  0.1868E+02
  -3.086  0.4260E+01  0.1872E+02
  -3.076  0.4309E+01  0.1877E+02
  -3.066  0.4358E+01  0.1881E+02
  -3.056  0.4407E+01  0.1885E+02
  -3.046  0.4456E+01  0.1890E+02
  -3.036  0.4504E+01  0.1894E+02
  -3.026  0.4551E+01  0.1899E+02
  -3.016  0.4598E+01  0.1903E+02
  -3.006  0.4644E+01  0.1908E+02
  -2.996  0.4689E+01  0.1913E+02
  -2.986  0.4733E+01  0.1918E+02
  -2.976  0.4777E+01  0.1922E+02
  -2.966  0.4820E+01  0.1927E+02
  -2.956  0.4861E+01  0.1932E+02
  -2.946  0.4902E+01  0.1937E+02
  -2.936  0.4941E+01  0.1942E+02
  -2.926  0.4979E+01  0.1947E+02
  -2.916  0.5016E+01  0.1952E+02
  -2.906  0.5052E+01  0.1957E+02
  -2.896  0.5086E+01  0.1962E+02
  -2.886  0.5119E+01  0.1967E+02
  -2.876  0.5151E+01  0.1972E+02
  -2.866  0.5181E+01  0.1977E+02
  -2.856  0.5209E+01  0.1983E+02
  -2.846  0.5236E+01  0.1988E+02
  -2.836  0.5261E+01  0.1993E+02
  -2.826  0.5284E+01  0.1998E+02
  -2.816  0.5305E+01  0.2004E+02
  -2.806  0.5325E+01  0.2009E+02
  -2.796  0.5343E+01  0.2014E+02
  -2.786  0.5359E+01  0.2020E+02
  -2.776  0.5374E+01  0.2025E+02
  -2.766  0.5386E+01  0.2030E+02
  -2.756  0.5396E+01  0.2036E+02
  -2.746  0.5405E+01  0.2041E+02
  -2.736  0.5411E+01  0.2047E+02
  -2.726  0.5416E+01  0.2052E+02
  -2.716  0.5418E+01  0.2058E+02
  -2.706  0.5419E+01  0.2063E+02
  -2.696  0.5417E+01  0.2068E+02
  -2.686  0.5414E+01  0.2074E+02
  -2.676  0.5408E+01  0.2079E+02
  -2.666  0.5400E+01  0.2085E+02
  -2.656  0.5391E+01  0.2090E+02
  -2.646  0.5379E+01  0.2095E+02
  -2.636  0.5366E+01  0.2101E+02
  -2.626  0.5350E+01  0.2106E+02
  -2.616  0.5332E+01  0.2111E+02
  -2.606  0.5313E+01  0.2117E+02
  -2.596  0.5291E+01  0.2122E+02
  -2.586  0.5268E+01  0.2127E+02
  -2.576  0.5243E+01  0.2133E+02
  -2.566  0.5215E+01  0.2138E+02
  -2.556  0.5186E+01  0.2143E+02
  -2.546  0.5156E+01  0.2148E+02
  -2.536  0.5123E+01  0.2153E+02
  -2.526  0.5089E+01  0.2158E+02
  -2.516  0.5052E+01  0.2163E+02
  -2.506  0.5015E+01  0.2168E+02
  -2.496  0.4975E+01  0.2173E+02
  -2.486  0.4934E+01  0.2178E+02
  -2.476  0.4892E+01  0.2183E+02
  -2.466  0.4848E+01  0.2188E+02
  -2.456  0.4802E+01  0.2193E+02
  -2.446  0.4755E+01  0.2198E+02
  -2.436  0.4707E+01  0.2202E+02
  -2.426  0.4657E+01  0.2207E+02
  -2.416  0.4606E+01  0.2212E+02
  -2.406  0.4554E+01  0.2216E+02
  -2.396  0.4501E+01  0.2221E+02
  -2.386  0.4446E+01  0.2225E+02
  -2.376  0.4391E+01  0.2229E+02
  -2.366  0.4334E+01  0.2234E+02
  -2.356  0.4276E+01  0.2238E+02
  -2.346  0.4218E+01  0.2242E+02
  -2.336  0.4159E+01  0.2246E+02
  -2.326  0.4099E+01  0.2251E+02
  -2.316  0.4038E+01  0.2255E+02
  -2.306  0.3976E+01  0.2259E+02
  -2.296  0.3914E+01  0.2262E+02
  -2.286  0.3851E+01  0.2266E+02
  -2.276  0.3788E+01  0.2270E+02
  -2.266  0.3724E+01  0.2274E+02
  -2.256  0.3660E+01  0.2277E+02
  -2.246  0.3595E+01  0.2281E+02
  -2.236  0.3530E+01  0.2285E+02
  -2.226  0.3465E+01  0.2288E+02
  -2.216  0.3400E+01  0.2291E+02
  -2.206  0.3334E+01  0.2295E+02
  -2.196  0.3269E+01  0.2298E+02
  -2.186  0.3203E+01  0.2301E+02
  -2.176  0.3138E+01  0.2304E+02
  -2.166  0.3072E+01  0.2307E+02
  -2.156  0.3007E+01  0.2310E+02
  -2.146  0.2941E+01  0.2313E+02
  -2.136  0.2876E+01  0.2316E+02
  -2.126  0.2811E+01  0.2319E+02
  -2.116  0.2747E+01  0.2322E+02
  -2.106  0.2682E+01  0.2325E+02
  -2.096  0.2618E+01  0.2327E+02
  -2.086  0.2555E+01  0.2330E+02
  -2.076  0.2492E+01  0.2332E+02
  -2.066  0.2429E+01  0.2335E+02
  -2.056  0.2367E+01  0.2337E+02
  -2.046  0.2306E+01  0.2339E+02
  -2.036  0.2245E+01  0.2342E+02
  -2.026  0.2185E+01  0.2344E+02
  -2.016  0.2125E+01  0.2346E+02
  -2.006  0.2067E+01  0.2348E+02
  -1.996  0.2009E+01  0.2350E+02
  -1.986  0.1951E+01  0.2352E+02
  -1.976  0.1895E+01  0.2354E+02
  -1.966  0.1839E+01  0.2356E+02
  -1.956  0.1784E+01  0.2357E+02
  -1.946  0.1730E+01  0.2359E+02
  -1.936  0.1677E+01  0.2361E+02
  -1.926  0.1625E+01  0.2362E+02
  -1.916  0.1574E+01  0.2364E+02
  -1.906  0.1524E+01  0.2366E+02
  -1.896  0.1475E+01  0.2367E+02
  -1.886  0.1426E+01  0.2368E+02
  -1.876  0.1379E+01  0.2370E+02
  -1.866  0.1333E+01  0.2371E+02
  -1.856  0.1288E+01  0.2372E+02
  -1.846  0.1244E+01  0.2374E+02
  -1.836  0.1200E+01  0.2375E+02
  -1.826  0.1158E+01  0.2376E+02
  -1.816  0.1117E+01  0.2377E+02
  -1.806  0.1078E+01  0.2378E+02
  -1.796  0.1039E+01  0.2379E+02
  -1.786  0.1001E+01  0.2380E+02
  -1.776  0.9644E+00  0.2381E+02
  -1.766  0.9289E+00  0.2382E+02
  -1.756  0.8944E+00  0.2383E+02
  -1.746  0.8611E+00  0.2384E+02
  -1.736  0.8289E+00  0.2385E+02
  -1.726  0.7978E+00  0.2386E+02
  -1.716  0.7678E+00  0.2386E+02
  -1.706  0.7388E+00  0.2387E+02
  -1.696  0.7110E+00  0.2388E+02
  -1.686  0.6843E+00  0.2388E+02
  -1.676  0.6587E+00  0.2389E+02
  -1.666  0.6342E+00  0.2390E+02
  -1.656  0.6108E+00  0.2390E+02
  -1.646  0.5884E+00  0.2391E+02
  -1.636  0.5672E+00  0.2392E+02
  -1.626  0.5470E+00  0.2392E+02
  -1.616  0.5280E+00  0.2393E+02
  -1.606  0.5100E+00  0.2393E+02
  -1.596  0.4931E+00  0.2394E+02
  -1.586  0.4772E+00  0.2394E+02
  -1.576  0.4625E+00  0.2395E+02
  -1.566  0.4488E+00  0.2395E+02
  -1.556  0.4362E+00  0.2395E+02
  -1.546  0.4247E+00  0.2396E+02
  -1.536  0.4142E+00  0.2396E+02
  -1.526  0.4048E+00  0.2397E+02
  -1.516  0.3965E+00  0.2397E+02
  -1.506  0.3893E+00  0.2397E+02
  -1.496  0.3831E+00  0.2398E+02
  -1.486  0.3780E+00  0.2398E+02
  -1.476  0.3739E+00  0.2399E+02
  -1.466  0.3710E+00  0.2399E+02
  -1.456  0.3691E+00  0.2399E+02
  -1.446  0.3683E+00  0.2400E+02
  -1.436  0.3686E+00  0.2400E+02
  -1.426  0.3700E+00  0.2400E+02
  -1.416  0.3725E+00  0.2401E+02
  -1.406  0.3761E+00  0.2401E+02
  -1.396  0.3807E+00  0.2402E+02
  -1.386  0.3865E+00  0.2402E+02
  -1.376  0.3935E+00  0.2402E+02
  -1.366  0.4015E+00  0.2403E+02
  -1.356  0.4107E+00  0.2403E+02
  -1.346  0.4211E+00  0.2404E+02
  -1.336  0.4325E+00  0.2404E+02
  -1.326  0.4452E+00  0.2404E+02
  -1.316  0.4590E+00  0.2405E+02
  -1.306  0.4740E+00  0.2405E+02
  -1.296  0.4902E+00  0.2406E+02
  -1.286  0.5076E+00  0.2406E+02
  -1.276  0.5262E+00  0.2407E+02
  -1.266  0.5460E+00  0.2407E+02
  -1.256  0.5671E+00  0.2408E+02
  -1.246  0.5893E+00  0.2409E+02
  -1.236  0.6129E+00  0.2409E+02
  -1.226  0.6376E+00  0.2410E+02
  -1.216  0.6637E+00  0.2411E+02
  -1.206  0.6910E+00  0.2411E+02
  -1.196  0.7196E+00  0.2412E+02
  -1.186  0.7495E+00  0.2413E+02
  -1.176  0.7806E+00  0.2413E+02
  -1.166  0.8131E+00  0.2414E+02
  -1.156  0.8469E+00  0.2415E+02
  -1.146  0.8819E+00  0.2416E+02
  -1.136  0.9183E+00  0.2417E+02
  -1.126  0.9560E+00  0.2418E+02
  -1.116  0.9950E+00  0.2419E+02
  -1.106  0.1035E+01  0.2420E+02
  -1.096  0.1077E+01  0.2421E+02
  -1.086  0.1120E+01  0.2422E+02
  -1.076  0.1164E+01  0.2423E+02
  -1.066  0.1210E+01  0.2424E+02
  -1.056  0.1256E+01  0.2426E+02
  -1.046  0.1304E+01  0.2427E+02
  -1.036  0.1354E+01  0.2428E+02
  -1.026  0.1404E+01  0.2430E+02
  -1.016  0.1456E+01  0.2431E+02
  -1.006  0.1509E+01  0.2433E+02
  -0.996  0.1563E+01  0.2434E+02
  -0.986  0.1619E+01  0.2436E+02
  -0.976  0.1676E+01  0.2438E+02
  -0.966  0.1733E+01  0.2439E+02
  -0.956  0.1792E+01  0.2441E+02
  -0.946  0.1852E+01  0.2443E+02
  -0.936  0.1913E+01  0.2445E+02
  -0.926  0.1975E+01  0.2447E+02
  -0.916  0.2038E+01  0.2449E+02
  -0.906  0.2102E+01  0.2451E+02
  -0.896  0.2167E+01  0.2453E+02
  -0.886  0.2233E+01  0.2455E+02
  -0.876  0.2300E+01  0.2458E+02
  -0.866  0.2367E+01  0.2460E+02
  -0.856  0.2435E+01  0.2463E+02
  -0.846  0.2504E+01  0.2465E+02
  -0.836  0.2574E+01  0.2468E+02
  -0.826  0.2644E+01  0.2470E+02
  -0.816  0.2715E+01  0.2473E+02
  -0.806  0.2786E+01  0.2476E+02
  -0.796  0.2858E+01  0.2479E+02
  -0.786  0.2930E+01  0.2482E+02
  -0.776  0.3003E+01  0.2485E+02
  -0.766  0.3076E+01  0.2488E+02
  -0.756  0.3149E+01  0.2491E+02
  -0.746  0.3223E+01  0.2494E+02
  -0.736  0.3296E+01  0.2497E+02
  -0.726  0.3370E+01  0.2501E+02
  -0.716  0.3444E+01  0.2504E+02
  -0.706  0.3518E+01  0.2508E+02
  -0.696  0.3591E+01  0.2511E+02
  -0.686  0.3665E+01  0.2515E+02
  -0.676  0.3738E+01  0.2519E+02
  -0.666  0.3811E+01  0.2522E+02
  -0.656  0.3884E+01  0.2526E+02
  -0.646  0.3957E+01  0.2530E+02
  -0.636  0.4029E+01  0.2534E+02
  -0.626  0.4101E+01  0.2538E+02
  -0.616  0.4172E+01  0.2543E+02
  -0.606  0.4242E+01  0.2547E+02
  -0.596  0.4312E+01  0.2551E+02
  -0.586  0.4382E+01  0.2555E+02
  -0.576  0.4450E+01  0.2560E+02
  -0.566  0.4518E+01  0.2564E+02
  -0.556  0.4585E+01  0.2569E+02
  -0.546  0.4651E+01  0.2574E+02
  -0.536  0.4717E+01  0.2578E+02
  -0.526  0.4781E+01  0.2583E+02
  -0.516  0.4845E+01  0.2588E+02
  -0.506  0.4907E+01  0.2593E+02
  -0.496  0.4968E+01  0.2598E+02
  -0.486  0.5029E+01  0.2603E+02
  -0.476  0.5088E+01  0.2608E+02
  -0.466  0.5146E+01  0.2613E+02
  -0.456  0.5203E+01  0.2618E+02
  -0.446  0.5259E+01  0.2624E+02
  -0.436  0.5313E+01  0.2629E+02
  -0.426  0.5367E+01  0.2634E+02
  -0.416  0.5419E+01  0.2640E+02
  -0.406  0.5470E+01  0.2645E+02
  -0.396  0.5520E+01  0.2651E+02
  -0.386  0.5568E+01  0.2656E+02
  -0.376  0.5615E+01  0.2662E+02
  -0.366  0.5661E+01  0.2668E+02
  -0.356  0.5706E+01  0.2673E+02
  -0.346  0.5749E+01  0.2679E+02
  -0.336  0.5791E+01  0.2685E+02
  -0.326  0.5832E+01  0.2691E+02
  -0.316  0.5871E+01  0.2697E+02
  -0.306  0.5910E+01  0.2702E+02
  -0.296  0.5947E+01  0.2708E+02
  -0.286  0.5982E+01  0.2714E+02
  -0.276  0.6017E+01  0.2720E+02
  -0.266  0.6050E+01  0.2726E+02
  -0.256  0.6082E+01  0.2733E+02
  -0.246  0.6113E+01  0.2739E+02
  -0.236  0.6143E+01  0.2745E+02
  -0.226  0.6172E+01  0.2751E+02
  -0.216  0.6199E+01  0.2757E+02
  -0.206  0.6226E+01  0.2763E+02
  -0.196  0.6251E+01  0.2770E+02
  -0.186  0.6276E+01  0.2776E+02
  -0.176  0.6299E+01  0.2782E+02
  -0.166  0.6321E+01  0.2789E+02
  -0.156  0.6343E+01  0.2795E+02
  -0.146  0.6363E+01  0.2801E+02
  -0.136  0.6383E+01  0.2808E+02
  -0.126  0.6402E+01  0.2814E+02
  -0.116  0.6420E+01  0.2820E+02
  -0.106  0.6437E+01  0.2827E+02
  -0.096  0.6454E+01  0.2833E+02
  -0.086  0.6469E+01  0.2840E+02
  -0.076  0.6484E+01  0.2846E+02
  -0.066  0.6499E+01  0.2853E+02
  -0.056  0.6513E+01  0.2859E+02
  -0.046  0.6526E+01  0.2866E+02
  -0.036  0.6538E+01  0.2872E+02
  -0.026  0.6550E+01  0.2879E+02
  -0.016  0.6562E+01  0.2885E+02
  -0.006  0.6573E+01  0.2892E+02
   0.004  0.6584E+01  0.2899E+02
   0.014  0.6594E+01  0.2905E+02
   0.024  0.6604E+01  0.2912E+02
   0.034  0.6613E+01  0.2918E+02
   0.044  0.6623E+01  0.2925E+02
   0.054  0.6632E+01  0.2932E+02
   0.064  0.6640E+01  0.2938E+02
   0.074  0.6649E+01  0.2945E+02
   0.084  0.6657E+01  0.2952E+02
   0.094  0.6665E+01  0.2958E+02
   0.104  0.6673E+01  0.2965E+02
   0.114  0.6680E+01  0.2972E+02
   0.124  0.6688E+01  0.2978E+02
   0.134  0.6695E+01  0.2985E+02
   0.144  0.6703E+01  0.2992E+02
   0.154  0.6710E+01  0.2998E+02
   0.164  0.6717E+01  0.3005E+02
   0.174  0.6725E+01  0.3012E+02
   0.184  0.6732E+01  0.3019E+02
   0.194  0.6739E+01  0.3025E+02
   0.204  0.6746E+01  0.3032E+02
   0.214  0.6753E+01  0.3039E+02
   0.224  0.6761E+01  0.3046E+02
   0.234  0.6768E+01  0.3052E+02
   0.244  0.6775E+01  0.3059E+02
   0.254  0.6783E+01  0.3066E+02
   0.264  0.6790E+01  0.3073E+02
   0.274  0.6798E+01  0.3080E+02
   0.284  0.6806E+01  0.3086E+02
   0.294  0.6813E+01  0.3093E+02
   0.304  0.6821E+01  0.3100E+02
   0.314  0.6829E+01  0.3107E+02
   0.324  0.6838E+01  0.3114E+02
   0.334  0.6846E+01  0.3120E+02
   0.344  0.6854E+01  0.3127E+02
   0.354  0.6863E+01  0.3134E+02
   0.364  0.6871E+01  0.3141E+02
   0.374  0.6880E+01  0.3148E+02
   0.384  0.6889E+01  0.3155E+02
   0.394  0.6898E+01  0.3162E+02
   0.404  0.6908E+01  0.3169E+02
   0.414  0.6917E+01  0.3176E+02
   0.424  0.6926E+01  0.3182E+02
   0.434  0.6936E+01  0.3189E+02
   0.444  0.6946E+01  0.3196E+02
   0.454  0.6956E+01  0.3203E+02
   0.464  0.6966E+01  0.3210E+02
   0.474  0.6977E+01  0.3217E+02
   0.484  0.6987E+01  0.3224E+02
   0.494  0.6998E+01  0.3231E+02
   0.504  0.7008E+01  0.3238E+02
   0.514  0.7019E+01  0.3245E+02
   0.524  0.7031E+01  0.3252E+02
   0.534  0.7042E+01  0.3259E+02
   0.544  0.7053E+01  0.3266E+02
   0.554  0.7065E+01  0.3273E+02
   0.564  0.7077E+01  0.3281E+02
   0.574  0.7088E+01  0.3288E+02
   0.584  0.7101E+01  0.3295E+02
   0.594  0.7113E+01  0.3302E+02
   0.604  0.7125E+01  0.3309E+02
   0.614  0.7138E+01  0.3316E+02
   0.624  0.7150E+01  0.3323E+02
   0.634  0.7163E+01  0.3330E+02
   0.644  0.7176E+01  0.3338E+02
   0.654  0.7189E+01  0.3345E+02
   0.664  0.7203E+01  0.3352E+02
   0.674  0.7216E+01  0.3359E+02
   0.684  0.7230E+01  0.3366E+02
   0.694  0.7243E+01  0.3374E+02
   0.704  0.7257E+01  0.3381E+02
   0.714  0.7271E+01  0.3388E+02
   0.724  0.7285E+01  0.3395E+02
   0.734  0.7299E+01  0.3403E+02
   0.744  0.7313E+01  0.3410E+02
   0.754  0.7328E+01  0.3417E+02
   0.764  0.7342E+01  0.3425E+02
   0.774  0.7357E+01  0.3432E+02
   0.784  0.7372E+01  0.3440E+02
   0.794  0.7386E+01  0.3447E+02
   0.804  0.7401E+01  0.3454E+02
   0.814  0.7416E+01  0.3462E+02
   0.824  0.7431E+01  0.3469E+02
   0.834  0.7446E+01  0.3477E+02
   0.844  0.7461E+01  0.3484E+02
   0.854  0.7476E+01  0.3492E+02
   0.864  0.7491E+01  0.3499E+02
   0.874  0.7506E+01  0.3507E+02
   0.884  0.7521E+01  0.3514E+02
   0.894  0.7536E+01  0.3522E+02
   0.904  0.7551E+01  0.3529E+02
   0.914  0.7566E+01  0.3537E+02
   0.924  0.7581E+01  0.3544E+02
   0.934  0.7596E+01  0.3552E+02
   0.944  0.7611E+01  0.3559E+02
   0.954  0.7625E+01  0.3567E+02
   0.964  0.7640E+01  0.3575E+02
   0.974  0.7654E+01  0.3582E+02
   0.984  0.7669E+01  0.3590E+02
   0.994  0.7683E+01  0.3598E+02
   1.004  0.7697E+01  0.3605E+02
   1.014  0.7710E+01  0.3613E+02
   1.024  0.7724E+01  0.3621E+02
   1.034  0.7737E+01  0.3629E+02
   1.044  0.7750E+01  0.3636E+02
   1.054  0.7763E+01  0.3644E+02
   1.064  0.7776E+01  0.3652E+02
   1.074  0.7788E+01  0.3660E+02
   1.084  0.7800E+01  0.3668E+02
   1.094  0.7812E+01  0.3675E+02
   1.104  0.7823E+01  0.3683E+02
   1.114  0.7834E+01  0.3691E+02
   1.124  0.7844E+01  0.3699E+02
   1.134  0.7855E+01  0.3707E+02
   1.144  0.7864E+01  0.3715E+02
   1.154  0.7874E+01  0.3722E+02
   1.164  0.7883E+01  0.3730E+02
   1.174  0.7891E+01  0.3738E+02
   1.184  0.7899E+01  0.3746E+02
   1.194  0.7907E+01  0.3754E+02
   1.204  0.7914E+01  0.3762E+02
   1.214  0.7921E+01  0.3770E+02
   1.224  0.7927E+01  0.3778E+02
   1.234  0.7933E+01  0.3786E+02
   1.244  0.7938E+01  0.3794E+02
   1.254  0.7942E+01  0.3802E+02
   1.264  0.7946E+01  0.3810E+02
   1.274  0.7950E+01  0.3817E+02
   1.284  0.7953E+01  0.3825E+02
   1.294  0.7955E+01  0.3833E+02
   1.304  0.7957E+01  0.3841E+02
   1.314  0.7958E+01  0.3849E+02
   1.324  0.7959E+01  0.3857E+02
   1.334  0.7959E+01  0.3865E+02
   1.344  0.7958E+01  0.3873E+02
   1.354  0.7957E+01  0.3881E+02
   1.364  0.7955E+01  0.3889E+02
   1.374  0.7953E+01  0.3897E+02
   1.384  0.7949E+01  0.3905E+02
   1.394  0.7946E+01  0.3913E+02
   1.404  0.7942E+01  0.3921E+02
   1.414  0.7937E+01  0.3929E+02
   1.424  0.7931E+01  0.3937E+02
   1.434  0.7925E+01  0.3945E+02
   1.444  0.7918E+01  0.3953E+02
   1.454  0.7911E+01  0.3960E+02
   1.464  0.7903E+01  0.3968E+02
   1.474  0.7894E+01  0.3976E+02
   1.484  0.7885E+01  0.3984E+02
   1.494  0.7876E+01  0.3992E+02
   1.504  0.7865E+01  0.4000E+02
   1.514  0.7855E+01  0.4008E+02
   1.524  0.7843E+01  0.4016E+02
   1.534  0.7831E+01  0.4023E+02
   1.544  0.7819E+01  0.4031E+02
   1.554  0.7806E+01  0.4039E+02
   1.564  0.7792E+01  0.4047E+02
   1.574  0.7778E+01  0.4055E+02
   1.584  0.7763E+01  0.4062E+02
   1.594  0.7748E+01  0.4070E+02
   1.604  0.7733E+01  0.4078E+02
   1.614  0.7716E+01  0.4086E+02
   1.624  0.7700E+01  0.4093E+02
   1.634  0.7683E+01  0.4101E+02
   1.644  0.7665E+01  0.4109E+02
   1.654  0.7647E+01  0.4116E+02
   1.664  0.7629E+01  0.4124E+02
   1.674  0.7610E+01  0.4132E+02
   1.684  0.7591E+01  0.4139E+02
   1.694  0.7572E+01  0.4147E+02
   1.704  0.7552E+01  0.4154E+02
   1.714  0.7532E+01  0.4162E+02
   1.724  0.7511E+01  0.4169E+02
   1.734  0.7490E+01  0.4177E+02
   1.744  0.7468E+01  0.4184E+02
   1.754  0.7447E+01  0.4192E+02
   1.764  0.7425E+01  0.4199E+02
   1.774  0.7402E+01  0.4207E+02
   1.784  0.7379E+01  0.4214E+02
   1.794  0.7356E+01  0.4221E+02
   1.804  0.7333E+01  0.4229E+02
   1.814  0.7309E+01  0.4236E+02
   1.824  0.7285E+01  0.4243E+02
   1.834  0.7261E+01  0.4250E+02
   1.844  0.7236E+01  0.4258E+02
   1.854  0.7211E+01  0.4265E+02
   1.864  0.7186E+01  0.4272E+02
   1.874  0.7160E+01  0.4279E+02
   1.884  0.7134E+01  0.4286E+02
   1.894  0.7108E+01  0.4293E+02
   1.904  0.7081E+01  0.4301E+02
   1.914  0.7054E+01  0.4308E+02
   1.924  0.7027E+01  0.4315E+02
   1.934  0.6999E+01  0.4322E+02
   1.944  0.6971E+01  0.4329E+02
   1.954  0.6942E+01  0.4336E+02
   1.964  0.6914E+01  0.4342E+02
   1.974  0.6884E+01  0.4349E+02
   1.984  0.6854E+01  0.4356E+02
   1.994  0.6824E+01  0.4363E+02
   2.004  0.6793E+01  0.4370E+02
   2.014  0.6762E+01  0.4377E+02
   2.024  0.6730E+01  0.4383E+02
   2.034  0.6698E+01  0.4390E+02
   2.044  0.6665E+01  0.4397E+02
   2.054  0.6632E+01  0.4403E+02
   2.064  0.6598E+01  0.4410E+02
   2.074  0.6563E+01  0.4416E+02
   2.084  0.6528E+01  0.4423E+02
   2.094  0.6492E+01  0.4429E+02
   2.104  0.6455E+01  0.4436E+02
   2.114  0.6418E+01  0.4442E+02
   2.124  0.6380E+01  0.4449E+02
   2.134  0.6341E+01  0.4455E+02
   2.144  0.6301E+01  0.4461E+02
   2.154  0.6261E+01  0.4468E+02
   2.164  0.6220E+01  0.4474E+02
   2.174  0.6178E+01  0.4480E+02
   2.184  0.6135E+01  0.4486E+02
   2.194  0.6092E+01  0.4492E+02
   2.204  0.6047E+01  0.4498E+02
   2.214  0.6002E+01  0.4504E+02
   2.224  0.5955E+01  0.4510E+02
   2.234  0.5908E+01  0.4516E+02
   2.244  0.5860E+01  0.4522E+02
   2.254  0.5811E+01  0.4528E+02
   2.264  0.5761E+01  0.4534E+02
   2.274  0.5710E+01  0.4539E+02
   2.284  0.5658E+01  0.4545E+02
   2.294  0.5605E+01  0.4551E+02
   2.304  0.5551E+01  0.4556E+02
   2.314  0.5496E+01  0.4562E+02
   2.324  0.5440E+01  0.4567E+02
   2.334  0.5384E+01  0.4572E+02
   2.344  0.5326E+01  0.4578E+02
   2.354  0.5267E+01  0.4583E+02
   2.364  0.5208E+01  0.4588E+02
   2.374  0.5147E+01  0.4593E+02
   2.384  0.5086E+01  0.4598E+02
   2.394  0.5023E+01  0.4604E+02
   2.404  0.4960E+01  0.4608E+02
   2.414  0.4896E+01  0.4613E+02
   2.424  0.4831E+01  0.4618E+02
   2.434  0.4766E+01  0.4623E+02
   2.444  0.4699E+01  0.4628E+02
   2.454  0.4632E+01  0.4632E+02
   2.464  0.4564E+01  0.4637E+02
   2.474  0.4496E+01  0.4641E+02
   2.484  0.4427E+01  0.4646E+02
   2.494  0.4357E+01  0.4650E+02
   2.504  0.4286E+01  0.4654E+02
   2.514  0.4216E+01  0.4659E+02
   2.524  0.4144E+01  0.4663E+02
   2.534  0.4072E+01  0.4667E+02
   2.544  0.4000E+01  0.4671E+02
   2.554  0.3928E+01  0.4675E+02
   2.564  0.3855E+01  0.4679E+02
   2.574  0.3782E+01  0.4682E+02
   2.584  0.3708E+01  0.4686E+02
   2.594  0.3635E+01  0.4690E+02
   2.604  0.3561E+01  0.4693E+02
   2.614  0.3488E+01  0.4697E+02
   2.624  0.3414E+01  0.4700E+02
   2.634  0.3340E+01  0.4704E+02
   2.644  0.3267E+01  0.4707E+02
   2.654  0.3194E+01  0.4710E+02
   2.664  0.3120E+01  0.4713E+02
   2.674  0.3047E+01  0.4716E+02
   2.684  0.2975E+01  0.4719E+02
   2.694  0.2902E+01  0.4722E+02
   2.704  0.2831E+01  0.4725E+02
   2.714  0.2759E+01  0.4728E+02
   2.724  0.2688E+01  0.4730E+02
   2.734  0.2618E+01  0.4733E+02
   2.744  0.2548E+01  0.4736E+02
   2.754  0.2479E+01  0.4738E+02
   2.764  0.2410E+01  0.4740E+02
   2.774  0.2342E+01  0.4743E+02
   2.784  0.2275E+01  0.4745E+02
   2.794  0.2209E+01  0.4747E+02
   2.804  0.2143E+01  0.4749E+02
   2.814  0.2079E+01  0.4751E+02
   2.824  0.2015E+01  0.4753E+02
   2.834  0.1952E+01  0.4755E+02
   2.844  0.1890E+01  0.4757E+02
   2.854  0.1829E+01  0.4759E+02
   2.864  0.1769E+01  0.4761E+02
   2.874  0.1711E+01  0.4763E+02
   2.884  0.1653E+01  0.4764E+02
   2.894  0.1596E+01  0.4766E+02
   2.904  0.1541E+01  0.4767E+02
   2.914  0.1486E+01  0.4769E+02
   2.924  0.1433E+01  0.4770E+02
   2.934  0.1381E+01  0.4772E+02
   2.944  0.1330E+01  0.4773E+02
   2.954  0.1280E+01  0.4774E+02
   2.964  0.1232E+01  0.4776E+02
   2.974  0.1184E+01  0.4777E+02
   2.984  0.1138E+01  0.4778E+02
   2.994  0.1093E+01  0.4779E+02
   3.004  0.1049E+01  0.4780E+02
   3.014  0.1006E+01  0.4781E+02
   3.024  0.9648E+00  0.4782E+02
   3.034  0.9245E+00  0.4783E+02
   3.044  0.8854E+00  0.4784E+02
   3.054  0.8475E+00  0.4785E+02
   3.064  0.8107E+00  0.4785E+02
   3.074  0.7750E+00  0.4786E+02
   3.084  0.7405E+00  0.4787E+02
   3.094  0.7071E+00  0.4788E+02
   3.104  0.6749E+00  0.4788E+02
   3.114  0.6437E+00  0.4789E+02
   3.124  0.6136E+00  0.4790E+02
   3.134  0.5846E+00  0.4790E+02
   3.144  0.5566E+00  0.4791E+02
   3.154  0.5297E+00  0.4791E+02
   3.164  0.5037E+00  0.4792E+02
   3.174  0.4788E+00  0.4792E+02
   3.184  0.4548E+00  0.4793E+02
   3.194  0.4318E+00  0.4793E+02
   3.204  0.4096E+00  0.4794E+02
   3.214  0.3884E+00  0.4794E+02
   3.224  0.3681E+00  0.4794E+02
   3.234  0.3486E+00  0.4795E+02
   3.244  0.3300E+00  0.4795E+02
   3.254  0.3121E+00  0.4795E+02
   3.264  0.2951E+00  0.4796E+02
   3.274  0.2788E+00  0.4796E+02
   3.284  0.2632E+00  0.4796E+02
   3.294  0.2484E+00  0.4796E+02
   3.304  0.2343E+00  0.4797E+02
   3.314  0.2208E+00  0.4797E+02
   3.324  0.2080E+00  0.4797E+02
   3.334  0.1958E+00  0.4797E+02
   3.344  0.1842E+00  0.4797E+02
   3.354  0.1732E+00  0.4798E+02
   3.364  0.1627E+00  0.4798E+02
   3.374  0.1528E+00  0.4798E+02
   3.384  0.1434E+00  0.4798E+02
   3.394  0.1345E+00  0.4798E+02
   3.404  0.1261E+00  0.4798E+02
   3.414  0.1181E+00  0.4798E+02
   3.424  0.1106E+00  0.4799E+02
   3.434  0.1035E+00  0.4799E+02
   3.444  0.9674E-01  0.4799E+02
   3.454  0.9040E-01  0.4799E+02
   3.464  0.8443E-01  0.4799E+02
   3.474  0.7880E-01  0.4799E+02
   3.484  0.7349E-01  0.4799E+02
   3.494  0.6851E-01  0.4799E+02
   3.504  0.6382E-01  0.4799E+02
   3.514  0.5941E-01  0.4799E+02
   3.524  0.5528E-01  0.4799E+02
   3.534  0.5140E-01  0.4799E+02
   3.544  0.4776E-01  0.4799E+02
   3.554  0.4436E-01  0.4799E+02
   3.564  0.4117E-01  0.4800E+02
   3.574  0.3818E-01  0.4800E+02
   3.584  0.3539E-01  0.4800E+02
   3.594  0.3278E-01  0.4800E+02
   3.604  0.3035E-01  0.4800E+02
   3.614  0.2808E-01  0.4800E+02
   3.624  0.2596E-01  0.4800E+02
   3.634  0.2399E-01  0.4800E+02
   3.644  0.2215E-01  0.4800E+02
   3.654  0.2044E-01  0.4800E+02
   3.664  0.1885E-01  0.4800E+02
   3.674  0.1738E-01  0.4800E+02
   3.684  0.1601E-01  0.4800E+02
   3.694  0.1473E-01  0.4800E+02
   3.704  0.1355E-01  0.4800E+02
   3.714  0.1246E-01  0.4800E+02
   3.724  0.1145E-01  0.4800E+02
   3.734  0.1051E-01  0.4800E+02
   3.744  0.9646E-02  0.4800E+02
   3.754  0.8845E-02  0.4800E+02
   3.764  0.8106E-02  0.4800E+02
   3.774  0.7424E-02  0.4800E+02
   3.784  0.6795E-02  0.4800E+02
   3.794  0.6215E-02  0.4800E+02
   3.804  0.5681E-02  0.4800E+02
   3.814  0.5190E-02  0.4800E+02
   3.824  0.4738E-02  0.4800E+02
   3.834  0.4323E-02  0.4800E+02
   3.844  0.3941E-02  0.4800E+02
   3.854  0.3591E-02  0.4800E+02
   3.864  0.3270E-02  0.4800E+02
   3.874  0.2976E-02  0.4800E+02
   3.884  0.2706E-02  0.4800E+02
   3.894  0.2460E-02  0.4800E+02
   3.904  0.2234E-02  0.4800E+02
   3.914  0.2028E-02  0.4800E+02
   3.924  0.1839E-02  0.4800E+02
   3.934  0.1667E-02  0.4800E+02
   3.944  0.1511E-02  0.4800E+02
   3.954  0.1368E-02  0.4800E+02
   3.964  0.1237E-02  0.4800E+02
   3.974  0.1119E-02  0.4800E+02
   3.984  0.1011E-02  0.4800E+02
   3.994  0.9129E-03  0.4800E+02
   4.004  0.8238E-03  0.4800E+02
   4.014  0.7429E-03  0.4800E+02
   4.024  0.6696E-03  0.4800E+02
   4.034  0.6031E-03  0.4800E+02
   4.044  0.5428E-03  0.4800E+02
   4.054  0.4883E-03  0.4800E+02
   4.064  0.4389E-03  0.4800E+02
   4.074  0.3943E-03  0.4800E+02
   4.084  0.3540E-03  0.4800E+02
   4.094  0.3176E-03  0.4800E+02
   4.104  0.2848E-03  0.4800E+02
   4.114  0.2552E-03  0.4800E+02
   4.124  0.2285E-03  0.4800E+02
   4.134  0.2045E-03  0.4800E+02
   4.144  0.1829E-03  0.4800E+02
   4.154  0.1634E-03  0.4800E+02
   4.164  0.1460E-03  0.4800E+02
   4.174  0.1303E-03  0.4800E+02
   4.184  0.1162E-03  0.4800E+02
   4.194  0.1036E-03  0.4800E+02
   4.204  0.9227E-04  0.4800E+02
   4.214  0.8214E-04  0.4800E+02
   4.224  0.7307E-04  0.4800E+02
   4.234  0.6497E-04  0.4800E+02
   4.244  0.5772E-04  0.4800E+02
   4.254  0.5125E-04  0.4800E+02
   4.264  0.4548E-04  0.4800E+02
   4.274  0.4033E-04  0.4800E+02
   4.284  0.3574E-04  0.4800E+02
   4.294  0.3165E-04  0.4800E+02
   4.304  0.2801E-04  0.4800E+02
   4.314  0.2477E-04  0.4800E+02
   4.324  0.2190E-04  0.4800E+02
   4.334  0.1934E-04  0.4800E+02
   4.344  0.1707E-04  0.4800E+02
   4.354  0.1506E-04  0.4800E+02
   4.364  0.1328E-04  0.4800E+02
   4.374  0.1170E-04  0.4800E+02
   4.384  0.1030E-04  0.4800E+02
   4.394  0.9059E-05  0.4800E+02
   4.404  0.7965E-05  0.4800E+02
   4.414  0.6999E-05  0.4800E+02
   4.424  0.6145E-05  0.4800E+02
   4.434  0.5393E-05  0.4800E+02
   4.444  0.4729E-05  0.4800E+02
   4.454  0.4144E-05  0.4800E+02
   4.464  0.3630E-05  0.4800E+02
   4.474  0.3177E-05  0.4800E+02
   4.484  0.2779E-05  0.4800E+02
   4.494  0.2429E-05  0.4800E+02
   4.504  0.2121E-05  0.4800E+02
   4.514  0.1852E-05  0.4800E+02
   4.524  0.1615E-05  0.4800E+02
   4.534  0.1408E-05  0.4800E+02
   4.544  0.1227E-05  0.4800E+02
   4.554  0.1068E-05  0.4800E+02
   4.564  0.9294E-06  0.4800E+02
   4.574  0.8081E-06  0.4800E+02
   4.584  0.7021E-06  0.4800E+02
   4.594  0.6097E-06  0.4800E+02
   4.604  0.5291E-06  0.4800E+02
   4.614  0.4588E-06  0.4800E+02
   4.624  0.3976E-06  0.4800E+02
   4.634  0.3444E-06  0.4800E+02
   4.644  0.2980E-06  0.4800E+02
   4.654  0.2578E-06  0.4800E+02
   4.664  0.2228E-06  0.4800E+02
   4.674  0.1925E-06  0.4800E+02
   4.684  0.1661E-06  0.4800E+02
   4.694  0.1433E-06  0.4800E+02
   4.704  0.1235E-06  0.4800E+02
   4.714  0.1064E-06  0.4800E+02
   4.724  0.9163E-07  0.4800E+02
   4.734  0.7884E-07  0.4800E+02
   4.744  0.6778E-07  0.4800E+02
   4.754  0.5824E-07  0.4800E+02
   4.764  0.5001E-07  0.4800E+02
   4.774  0.4291E-07  0.4800E+02
   4.784  0.3680E-07  0.4800E+02
   4.794  0.3153E-07  0.4800E+02
   4.804  0.2701E-07  0.4800E+02
   4.814  0.2311E-07  0.4800E+02
   4.824  0.1977E-07  0.4800E+02
   4.834  0.1689E-07  0.4800E+02
   4.844  0.1443E-07  0.4800E+02
   4.854  0.1232E-07  0.4800E+02
   4.864  0.1051E-07  0.4800E+02
   4.874  0.8956E-08  0.4800E+02
   4.884  0.7630E-08  0.4800E+02
   4.894  0.6495E-08  0.4800E+02
   4.904  0.5526E-08  0.4800E+02
   4.914  0.4698E-08  0.4800E+02
   4.924  0.3991E-08  0.4800E+02
   4.934  0.3389E-08  0.4800E+02
   4.944  0.2876E-08  0.4800E+02
   4.954  0.2438E-08  0.4800E+02
   4.964  0.2066E-08  0.4800E+02
   4.974  0.1750E-08  0.4800E+02
   4.984  0.1481E-08  0.4800E+02
   4.994  0.1252E-08  0.4800E+02
   5.004  0.1058E-08  0.4800E+02
   5.014  0.8937E-09  0.4800E+02
   5.024  0.7543E-09  0.4800E+02
   5.034  0.6362E-09  0.4800E+02
   5.044  0.5363E-09  0.4800E+02
   5.054  0.4517E-09  0.4800E+02
   5.064  0.3802E-09  0.4800E+02
   5.074  0.3199E-09  0.4800E+02
   5.084  0.2689E-09  0.4800E+02
   5.094  0.2259E-09  0.4800E+02
   5.104  0.1897E-09  0.4800E+02
   5.114  0.1591E-09  0.4800E+02
   5.124  0.1334E-09  0.4800E+02
   5.134  0.1118E-09  0.4800E+02
   5.144  0.9359E-10  0.4800E+02
   5.154  0.7831E-10  0.4800E+02
   5.164  0.6549E-10  0.4800E+02
   5.174  0.5472E-10  0.4800E+02
   5.184  0.4570E-10  0.4800E+02
   5.194  0.3814E-10  0.4800E+02
   5.204  0.3181E-10  0.4800E+02
   5.214  0.2651E-10  0.4800E+02
   5.224  0.2208E-10  0.4800E+02
   5.234  0.1838E-10  0.4800E+02
   5.244  0.1528E-10  0.4800E+02
   5.254  0.1270E-10  0.4800E+02
   5.264  0.1055E-10  0.4800E+02
   5.274  0.8761E-11  0.4800E+02
   5.284  0.7267E-11  0.4800E+02
   5.294  0.6025E-11  0.4800E+02
   5.304  0.4991E-11  0.4800E+02
   5.314  0.4132E-11  0.4800E+02
   5.324  0.3419E-11  0.4800E+02
   5.334  0.2827E-11  0.4800E+02
   5.344  0.2336E-11  0.4800E+02
   5.354  0.1928E-11  0.4800E+02
   5.364  0.1591E-11  0.4800E+02
   5.374  0.1312E-11  0.4800E+02
   5.384  0.1081E-11  0.4800E+02
   5.394  0.8905E-12  0.4800E+02
   5.404  0.7328E-12  0.4800E+02
   5.414  0.6027E-12  0.4800E+02
   5.424  0.4953E-12  0.4800E+02
   5.434  0.4068E-12  0.4800E+02
   5.444  0.3339E-12  0.4800E+02
   5.454  0.2739E-12  0.4800E+02
   5.464  0.2245E-12  0.4800E+02
   5.474  0.1839E-12  0.4800E+02
   5.484  0.1505E-12  0.4800E+02
   5.494  0.1231E-12  0.4800E+02
   5.504  0.1007E-12  0.4800E+02
   5.514  0.8224E-13  0.4800E+02
   5.524  0.6715E-13  0.4800E+02
   5.534  0.5479E-13  0.4800E+02
   5.544  0.4467E-13  0.4800E+02
   5.554  0.3640E-13  0.4800E+02
   5.564  0.2965E-13  0.4800E+02
   5.574  0.2413E-13  0.4800E+02
   5.584  0.1963E-13  0.4800E+02
   5.594  0.1596E-13  0.4800E+02
   5.604  0.1298E-13  0.4800E+02
   5.614  0.1055E-13  0.4800E+02
   5.624  0.8579E-14  0.4800E+02
   5.634  0.6980E-14  0.4800E+02
   5.644  0.5687E-14  0.4800E+02
   5.654  0.4645E-14  0.4800E+02
   5.664  0.3808E-14  0.4800E+02
   5.674  0.3141E-14  0.4800E+02
   5.684  0.2614E-14  0.4800E+02
   5.694  0.2205E-14  0.4800E+02
   5.704  0.1894E-14  0.4800E+02
   5.714  0.1669E-14  0.4800E+02
   5.724  0.1519E-14  0.4800E+02
   5.734  0.1436E-14  0.4800E+02
   5.744  0.1416E-14  0.4800E+02
   5.754  0.1456E-14  0.4800E+02
   5.764  0.1559E-14  0.4800E+02
   5.774  0.1726E-14  0.4800E+02
   5.784  0.1963E-14  0.4800E+02
   5.794  0.2279E-14  0.4800E+02
   5.804  0.2685E-14  0.4800E+02
   5.814  0.3196E-14  0.4800E+02
   5.824  0.3829E-14  0.4800E+02
   5.834  0.4607E-14  0.4800E+02
   5.844  0.5560E-14  0.4800E+02
   5.854  0.6719E-14  0.4800E+02
   5.864  0.8128E-14  0.4800E+02
   5.874  0.9835E-14  0.4800E+02
   5.884  0.1190E-13  0.4800E+02
   5.894  0.1440E-13  0.4800E+02
   5.904  0.1741E-13  0.4800E+02
   5.914  0.2105E-13  0.4800E+02
   5.924  0.2543E-13  0.4800E+02
   5.934  0.3070E-13  0.4800E+02
   5.944  0.3705E-13  0.4800E+02
   5.954  0.4468E-13  0.4800E+02
   5.964  0.5385E-13  0.4800E+02
   5.974  0.6486E-13  0.4800E+02
   5.984  0.7807E-13  0.4800E+02
   5.994  0.9392E-13  0.4800E+02
   6.004  0.1129E-12  0.4800E+02
   6.014  0.1356E-12  0.4800E+02
   6.024  0.1628E-12  0.4800E+02
   6.034  0.1954E-12  0.4800E+02
   6.044  0.2342E-12  0.4800E+02
   6.054  0.2807E-12  0.4800E+02
   6.064  0.3361E-12  0.4800E+02
   6.074  0.4022E-12  0.4800E+02
   6.084  0.4810E-12  0.4800E+02
   6.094  0.5749E-12  0.4800E+02
   6.104  0.6866E-12  0.4800E+02
   6.114  0.8195E-12  0.4800E+02
   6.124  0.9775E-12  0.4800E+02
   6.134  0.1165E-11  0.4800E+02
   6.144  0.1388E-11  0.4800E+02
   6.154  0.1652E-11  0.4800E+02
   6.164  0.1966E-11  0.4800E+02
   6.174  0.2338E-11  0.4800E+02
   6.184  0.2777E-11  0.4800E+02
   6.194  0.3298E-11  0.4800E+02
   6.204  0.3914E-11  0.4800E+02
   6.214  0.4641E-11  0.4800E+02
   6.224  0.5500E-11  0.4800E+02
   6.234  0.6514E-11  0.4800E+02
   6.244  0.7710E-11  0.4800E+02
   6.254  0.9120E-11  0.4800E+02
   6.264  0.1078E-10  0.4800E+02
   6.274  0.1274E-10  0.4800E+02
   6.284  0.1503E-10  0.4800E+02
   6.294  0.1774E-10  0.4800E+02
   6.304  0.2091E-10  0.4800E+02
   6.314  0.2464E-10  0.4800E+02
   6.324  0.2902E-10  0.4800E+02
   6.334  0.3415E-10  0.4800E+02
   6.344  0.4016E-10  0.4800E+02
   6.354  0.4720E-10  0.4800E+02
   6.364  0.5543E-10  0.4800E+02
   6.374  0.6507E-10  0.4800E+02
   6.384  0.7633E-10  0.4800E+02
   6.394  0.8948E-10  0.4800E+02
   6.404  0.1048E-09  0.4800E+02
   6.414  0.1227E-09  0.4800E+02
   6.424  0.1436E-09  0.4800E+02
   6.434  0.1679E-09  0.4800E+02
   6.444  0.1962E-09  0.4800E+02
   6.454  0.2291E-09  0.4800E+02
   6.464  0.2674E-09  0.4800E+02
   6.474  0.3119E-09  0.4800E+02
   6.484  0.3635E-09  0.4800E+02
   6.494  0.4235E-09  0.4800E+02
   6.504  0.4930E-09  0.4800E+02
   6.514  0.5735E-09  0.4800E+02
   6.524  0.6668E-09  0.4800E+02
   6.534  0.7747E-09  0.4800E+02
   6.544  0.8996E-09  0.4800E+02
   6.554  0.1044E-08  0.4800E+02
   6.564  0.1211E-08  0.4800E+02
   6.574  0.1403E-08  0.4800E+02
   6.584  0.1625E-08  0.4800E+02
   6.594  0.1881E-08  0.4800E+02
   6.604  0.2176E-08  0.4800E+02
   6.614  0.2516E-08  0.4800E+02
   6.624  0.2906E-08  0.4800E+02
   6.634  0.3356E-08  0.4800E+02
   6.644  0.3872E-08  0.4800E+02
   6.654  0.4465E-08  0.4800E+02
   6.664  0.5146E-08  0.4800E+02
   6.674  0.5927E-08  0.4800E+02
   6.684  0.6822E-08  0.4800E+02
   6.694  0.7847E-08  0.4800E+02
   6.704  0.9021E-08  0.4800E+02
   6.714  0.1036E-07  0.4800E+02
   6.724  0.1190E-07  0.4800E+02
   6.734  0.1365E-07  0.4800E+02
   6.744  0.1566E-07  0.4800E+02
   6.754  0.1794E-07  0.4800E+02
   6.764  0.2055E-07  0.4800E+02
   6.774  0.2352E-07  0.4800E+02
   6.784  0.2690E-07  0.4800E+02
   6.794  0.3075E-07  0.4800E+02
   6.804  0.3513E-07  0.4800E+02
   6.814  0.4011E-07  0.4800E+02
   6.824  0.4577E-07  0.4800E+02
   6.834  0.5219E-07  0.4800E+02
   6.844  0.5948E-07  0.4800E+02
   6.854  0.6774E-07  0.4800E+02
   6.864  0.7710E-07  0.4800E+02
   6.874  0.8770E-07  0.4800E+02
   6.884  0.9970E-07  0.4800E+02
   6.894  0.1133E-06  0.4800E+02
   6.904  0.1286E-06  0.4800E+02
   6.914  0.1459E-06  0.4800E+02
   6.924  0.1655E-06  0.4800E+02
   6.934  0.1876E-06  0.4800E+02
   6.944  0.2124E-06  0.4800E+02
   6.954  0.2405E-06  0.4800E+02
   6.964  0.2720E-06  0.4800E+02
   6.974  0.3075E-06  0.4800E+02
   6.984  0.3475E-06  0.4800E+02
   6.994  0.3924E-06  0.4800E+02
   7.004  0.4428E-06  0.4800E+02
   7.014  0.4994E-06  0.4800E+02
   7.024  0.5628E-06  0.4800E+02
   7.034  0.6340E-06  0.4800E+02
   7.044  0.7137E-06  0.4800E+02
   7.054  0.8030E-06  0.4800E+02
   7.064  0.9029E-06  0.4800E+02
   7.074  0.1015E-05  0.4800E+02
   7.084  0.1139E-05  0.4800E+02
   7.094  0.1279E-05  0.4800E+02
   7.104  0.1434E-05  0.4800E+02
   7.114  0.1608E-05  0.4800E+02
   7.124  0.1801E-05  0.4800E+02
   7.134  0.2017E-05  0.4800E+02
   7.144  0.2257E-05  0.4800E+02
   7.154  0.2524E-05  0.4800E+02
   7.164  0.2820E-05  0.4800E+02
   7.174  0.3150E-05  0.4800E+02
   7.184  0.3517E-05  0.4800E+02
   7.194  0.3923E-05  0.4800E+02
   7.204  0.4374E-05  0.4800E+02
   7.214  0.4874E-05  0.4800E+02
   7.224  0.5427E-05  0.4800E+02
   7.234  0.6040E-05  0.4800E+02
   7.244  0.6718E-05  0.4800E+02
   7.254  0.7468E-05  0.4800E+02
   7.264  0.8297E-05  0.4800E+02
   7.274  0.9212E-05  0.4800E+02
   7.284  0.1022E-04  0.4800E+02
   7.294  0.1133E-04  0.4800E+02
   7.304  0.1256E-04  0.4800E+02
   7.314  0.1391E-04  0.4800E+02
   7.324  0.1540E-04  0.4800E+02
   7.334  0.1704E-04  0.4800E+02
   7.344  0.1884E-04  0.4800E+02
   7.354  0.2082E-04  0.4800E+02
   7.364  0.2299E-04  0.4800E+02
   7.374  0.2538E-04  0.4800E+02
   7.384  0.2799E-04  0.4800E+02
   7.394  0.3086E-04  0.4800E+02
   7.404  0.3400E-04  0.4800E+02
   7.414  0.3744E-04  0.4800E+02
   7.424  0.4120E-04  0.4800E+02
   7.434  0.4531E-04  0.4800E+02
   7.444  0.4980E-04  0.4800E+02
   7.454  0.5471E-04  0.4800E+02
   7.464  0.6006E-04  0.4800E+02
   7.474  0.6590E-04  0.4800E+02
   7.484  0.7227E-04  0.4800E+02
   7.494  0.7920E-04  0.4800E+02
   7.504  0.8675E-04  0.4800E+02
   7.514  0.9496E-04  0.4800E+02
   7.524  0.1039E-03  0.4800E+02
   7.534  0.1136E-03  0.4800E+02
   7.544  0.1241E-03  0.4800E+02
   7.554  0.1356E-03  0.4800E+02
   7.564  0.1480E-03  0.4800E+02
   7.574  0.1614E-03  0.4800E+02
   7.584  0.1760E-03  0.4800E+02
   7.594  0.1917E-03  0.4800E+02
   7.604  0.2088E-03  0.4800E+02
   7.614  0.2272E-03  0.4800E+02
   7.624  0.2471E-03  0.4800E+02
   7.634  0.2687E-03  0.4800E+02
   7.644  0.2919E-03  0.4800E+02
   7.654  0.3169E-03  0.4800E+02
   7.664  0.3439E-03  0.4800E+02
   7.674  0.3730E-03  0.4800E+02
   7.684  0.4043E-03  0.4800E+02
   7.694  0.4379E-03  0.4800E+02
   7.704  0.4741E-03  0.4800E+02
   7.714  0.5130E-03  0.4800E+02
   7.724  0.5548E-03  0.4800E+02
   7.734  0.5997E-03  0.4800E+02
   7.744  0.6477E-03  0.4800E+02
   7.754  0.6993E-03  0.4800E+02
   7.764  0.7545E-03  0.4800E+02
   7.774  0.8136E-03  0.4800E+02
   7.784  0.8768E-03  0.4800E+02
   7.794  0.9444E-03  0.4800E+02
   7.804  0.1017E-02  0.4800E+02
   7.814  0.1094E-02  0.4800E+02
   7.824  0.1176E-02  0.4800E+02
   7.834  0.1264E-02  0.4800E+02
   7.844  0.1358E-02  0.4800E+02
   7.854  0.1457E-02  0.4800E+02
   7.864  0.1563E-02  0.4800E+02
   7.874  0.1676E-02  0.4800E+02
   7.884  0.1796E-02  0.4800E+02
   7.894  0.1924E-02  0.4800E+02
   7.904  0.2060E-02  0.4800E+02
   7.914  0.2203E-02  0.4800E+02
   7.924  0.2356E-02  0.4800E+02
   7.934  0.2517E-02  0.4800E+02
   7.944  0.2689E-02  0.4800E+02
   7.954  0.2870E-02  0.4800E+02
   7.964  0.3062E-02  0.4800E+02
   7.974  0.3265E-02  0.4800E+02
   7.984  0.3479E-02  0.4800E+02
   7.994  0.3705E-02  0.4800E+02
   8.004  0.3944E-02  0.4800E+02
   8.014  0.4196E-02  0.4800E+02
   8.024  0.4462E-02  0.4800E+02
   8.034  0.4742E-02  0.4800E+02
   8.044  0.5036E-02  0.4800E+02
   8.054  0.5346E-02  0.4800E+02
   8.064  0.5672E-02  0.4800E+02
   8.074  0.6015E-02  0.4800E+02
   8.084  0.6375E-02  0.4800E+02
   8.094  0.6752E-02  0.4800E+02
   8.104  0.7148E-02  0.4800E+02
   8.114  0.7563E-02  0.4800E+02
   8.124  0.7999E-02  0.4800E+02
   8.134  0.8454E-02  0.4800E+02
   8.144  0.8931E-02  0.4800E+02
   8.154  0.9429E-02  0.4800E+02
   8.164  0.9950E-02  0.4800E+02
   8.174  0.1049E-01  0.4800E+02
   8.184  0.1106E-01  0.4800E+02
   8.194  0.1166E-01  0.4800E+02
   8.204  0.1227E-01  0.4800E+02
   8.214  0.1292E-01  0.4800E+02
   8.224  0.1359E-01  0.4800E+02
   8.234  0.1429E-01  0.4800E+02
   8.244  0.1501E-01  0.4800E+02
   8.254  0.1577E-01  0.4800E+02
   8.264  0.1655E-01  0.4800E+02
   8.274  0.1737E-01  0.4800E+02
   8.284  0.1821E-01  0.4800E+02
   8.294  0.1909E-01  0.4800E+02
   8.304  0.2000E-01  0.4800E+02
   8.314  0.2094E-01  0.4800E+02
   8.324  0.2191E-01  0.4800E+02
   8.334  0.2292E-01  0.4800E+02
   8.344  0.2397E-01  0.4800E+02
   8.354  0.2504E-01  0.4800E+02
   8.364  0.2616E-01  0.4801E+02
   8.374  0.2731E-01  0.4801E+02
   8.384  0.2849E-01  0.4801E+02
   8.394  0.2972E-01  0.4801E+02
   8.404  0.3098E-01  0.4801E+02
   8.414  0.3228E-01  0.4801E+02
   8.424  0.3362E-01  0.4801E+02
   8.434  0.3499E-01  0.4801E+02
   8.444  0.3641E-01  0.4801E+02
   8.454  0.3786E-01  0.4801E+02
   8.464  0.3936E-01  0.4801E+02
   8.474  0.4089E-01  0.4801E+02
   8.484  0.4247E-01  0.4801E+02
   8.494  0.4409E-01  0.4801E+02
   8.504  0.4574E-01  0.4801E+02
   8.514  0.4744E-01  0.4801E+02
   8.524  0.4918E-01  0.4801E+02
   8.534  0.5096E-01  0.4801E+02
   8.544  0.5279E-01  0.4801E+02
   8.554  0.5465E-01  0.4801E+02
   8.564  0.5655E-01  0.4801E+02
   8.574  0.5850E-01  0.4801E+02
   8.584  0.6049E-01  0.4801E+02
   8.594  0.6252E-01  0.4802E+02
   8.604  0.6459E-01  0.4802E+02
   8.614  0.6670E-01  0.4802E+02
   8.624  0.6885E-01  0.4802E+02
   8.634  0.7104E-01  0.4802E+02
   8.644  0.7327E-01  0.4802E+02
   8.654  0.7555E-01  0.4802E+02
   8.664  0.7786E-01  0.4802E+02
   8.674  0.8021E-01  0.4802E+02
   8.684  0.8260E-01  0.4802E+02
   8.694  0.8503E-01  0.4802E+02
   8.704  0.8750E-01  0.4802E+02
   8.714  0.9001E-01  0.4802E+02
   8.724  0.9255E-01  0.4803E+02
   8.734  0.9513E-01  0.4803E+02
   8.744  0.9775E-01  0.4803E+02
   8.754  0.1004E+00  0.4803E+02
   8.764  0.1031E+00  0.4803E+02
   8.774  0.1058E+00  0.4803E+02
   8.784  0.1086E+00  0.4803E+02
   8.794  0.1114E+00  0.4803E+02
   8.804  0.1142E+00  0.4803E+02
   8.814  0.1171E+00  0.4803E+02
   8.824  0.1200E+00  0.4804E+02
   8.834  0.1229E+00  0.4804E+02
   8.844  0.1258E+00  0.4804E+02
   8.854  0.1288E+00  0.4804E+02
   8.864  0.1318E+00  0.4804E+02
   8.874  0.1349E+00  0.4804E+02
   8.884  0.1379E+00  0.4804E+02
   8.894  0.1410E+00  0.4805E+02
   8.904  0.1442E+00  0.4805E+02
   8.914  0.1473E+00  0.4805E+02
   8.924  0.1505E+00  0.4805E+02
   8.934  0.1537E+00  0.4805E+02
   8.944  0.1569E+00  0.4805E+02
   8.954  0.1602E+00  0.4805E+02
   8.964  0.1635E+00  0.4806E+02
   8.974  0.1668E+00  0.4806E+02
   8.984  0.1701E+00  0.4806E+02
   8.994  0.1734E+00  0.4806E+02
   9.004  0.1768E+00  0.4806E+02
   9.014  0.1801E+00  0.4806E+02
   9.024  0.1835E+00  0.4807E+02
   9.034  0.1870E+00  0.4807E+02
   9.044  0.1904E+00  0.4807E+02
   9.054  0.1938E+00  0.4807E+02
   9.064  0.1973E+00  0.4807E+02
   9.074  0.2008E+00  0.4808E+02
   9.084  0.2043E+00  0.4808E+02
   9.094  0.2078E+00  0.4808E+02
   9.104  0.2113E+00  0.4808E+02
   9.114  0.2148E+00  0.4808E+02
   9.124  0.2184E+00  0.4809E+02
   9.134  0.2219E+00  0.4809E+02
   9.144  0.2255E+00  0.4809E+02
   9.154  0.2291E+00  0.4809E+02
   9.164  0.2326E+00  0.4810E+02
   9.174  0.2362E+00  0.4810E+02
   9.184  0.2398E+00  0.4810E+02
   9.194  0.2434E+00  0.4810E+02
   9.204  0.2471E+00  0.4811E+02
   9.214  0.2507E+00  0.4811E+02
   9.224  0.2543E+00  0.4811E+02
   9.234  0.2580E+00  0.4811E+02
   9.244  0.2616E+00  0.4812E+02
   9.254  0.2652E+00  0.4812E+02
   9.264  0.2689E+00  0.4812E+02
   9.274  0.2726E+00  0.4812E+02
   9.284  0.2762E+00  0.4813E+02
   9.294  0.2799E+00  0.4813E+02
   9.304  0.2835E+00  0.4813E+02
   9.314  0.2872E+00  0.4814E+02
   9.324  0.2909E+00  0.4814E+02
   9.334  0.2946E+00  0.4814E+02
   9.344  0.2983E+00  0.4814E+02
   9.354  0.3019E+00  0.4815E+02
   9.364  0.3056E+00  0.4815E+02
   9.374  0.3093E+00  0.4815E+02
   9.384  0.3130E+00  0.4816E+02
   9.394  0.3167E+00  0.4816E+02
   9.404  0.3204E+00  0.4816E+02
   9.414  0.3241E+00  0.4817E+02
   9.424  0.3279E+00  0.4817E+02
   9.434  0.3316E+00  0.4817E+02
   9.444  0.3353E+00  0.4818E+02
   9.454  0.3390E+00  0.4818E+02
   9.464  0.3428E+00  0.4818E+02
   9.474  0.3465E+00  0.4819E+02
   9.484  0.3503E+00  0.4819E+02
   9.494  0.3540E+00  0.4819E+02
   9.504  0.3578E+00  0.4820E+02
   9.514  0.3616E+00  0.4820E+02
   9.524  0.3654E+00  0.4820E+02
   9.534  0.3692E+00  0.4821E+02
   9.544  0.3730E+00  0.4821E+02
   9.554  0.3768E+00  0.4822E+02
   9.564  0.3806E+00  0.4822E+02
   9.574  0.3845E+00  0.4822E+02
   9.584  0.3883E+00  0.4823E+02
   9.594  0.3922E+00  0.4823E+02
   9.604  0.3961E+00  0.4823E+02
   9.614  0.4000E+00  0.4824E+02
   9.624  0.4039E+00  0.4824E+02
   9.634  0.4078E+00  0.4825E+02
   9.644  0.4118E+00  0.4825E+02
   9.654  0.4158E+00  0.4825E+02
   9.664  0.4197E+00  0.4826E+02
   9.674  0.4238E+00  0.4826E+02
   9.684  0.4278E+00  0.4827E+02
   9.694  0.4319E+00  0.4827E+02
   9.704  0.4359E+00  0.4828E+02
   9.714  0.4400E+00  0.4828E+02
   9.724  0.4442E+00  0.4829E+02
   9.734  0.4483E+00  0.4829E+02
   9.744  0.4525E+00  0.4829E+02
   9.754  0.4567E+00  0.4830E+02
   9.764  0.4609E+00  0.4830E+02
   9.774  0.4652E+00  0.4831E+02
   9.784  0.4694E+00  0.4831E+02
   9.794  0.4737E+00  0.4832E+02
   9.804  0.4781E+00  0.4832E+02
   9.814  0.4824E+00  0.4833E+02
   9.824  0.4868E+00  0.4833E+02
   9.834  0.4913E+00  0.4834E+02
   9.844  0.4957E+00  0.4834E+02
   9.854  0.5002E+00  0.4835E+02
   9.864  0.5047E+00  0.4835E+02
   9.874  0.5092E+00  0.4836E+02
   9.884  0.5138E+00  0.4836E+02
   9.894  0.5184E+00  0.4837E+02
   9.904  0.5230E+00  0.4837E+02
   9.914  0.5277E+00  0.4838E+02
   9.924  0.5323E+00  0.4838E+02
   9.934  0.5371E+00  0.4839E+02
   9.944  0.5418E+00  0.4839E+02
   9.954  0.5466E+00  0.4840E+02
   9.964  0.5514E+00  0.4840E+02
   9.974  0.5562E+00  0.4841E+02
   9.984  0.5611E+00  0.4842E+02
   9.994  0.5660E+00  0.4842E+02
  10.004  0.5709E+00  0.4843E+02
  10.014  0.5759E+00  0.4843E+02
  10.024  0.5809E+00  0.4844E+02
  10.034  0.5859E+00  0.4844E+02
  10.044  0.5909E+00  0.4845E+02
  10.054  0.5960E+00  0.4846E+02
  10.064  0.6011E+00  0.4846E+02
  10.074  0.6063E+00  0.4847E+02
  10.084  0.6114E+00  0.4847E+02
  10.094  0.6166E+00  0.4848E+02
  10.104  0.6219E+00  0.4849E+02
  10.114  0.6271E+00  0.4849E+02
  10.124  0.6324E+00  0.4850E+02
  10.134  0.6378E+00  0.4851E+02
  10.144  0.6431E+00  0.4851E+02
  10.154  0.6485E+00  0.4852E+02
  10.164  0.6540E+00  0.4853E+02
  10.174  0.6594E+00  0.4853E+02
  10.184  0.6649E+00  0.4854E+02
  10.194  0.6705E+00  0.4855E+02
  10.204  0.6760E+00  0.4855E+02
  10.214  0.6816E+00  0.4856E+02
  10.224  0.6873E+00  0.4857E+02
  10.234  0.6930E+00  0.4857E+02
  10.244  0.6987E+00  0.4858E+02
  10.254  0.7044E+00  0.4859E+02
  10.264  0.7102E+00  0.4859E+02
  10.274  0.7161E+00  0.4860E+02
  10.284  0.7219E+00  0.4861E+02
  10.294  0.7278E+00  0.4862E+02
  10.304  0.7338E+00  0.4862E+02
  10.314  0.7398E+00  0.4863E+02
  10.324  0.7459E+00  0.4864E+02
  10.334  0.7519E+00  0.4865E+02
  10.344  0.7581E+00  0.4865E+02
  10.354  0.7643E+00  0.4866E+02
  10.364  0.7705E+00  0.4867E+02
  10.374  0.7767E+00  0.4868E+02
  10.384  0.7831E+00  0.4868E+02
  10.394  0.7894E+00  0.4869E+02
  10.404  0.7958E+00  0.4870E+02
  10.414  0.8023E+00  0.4871E+02
  10.424  0.8088E+00  0.4872E+02
  10.434  0.8154E+00  0.4872E+02
  10.444  0.8220E+00  0.4873E+02
  10.454  0.8286E+00  0.4874E+02
  10.464  0.8353E+00  0.4875E+02
  10.474  0.8421E+00  0.4876E+02
  10.484  0.8489E+00  0.4877E+02
  10.494  0.8557E+00  0.4877E+02
  10.504  0.8626E+00  0.4878E+02
  10.514  0.8696E+00  0.4879E+02
  10.524  0.8766E+00  0.4880E+02
  10.534  0.8837E+00  0.4881E+02
  10.544  0.8908E+00  0.4882E+02
  10.554  0.8979E+00  0.4883E+02
  10.564  0.9051E+00  0.4884E+02
  10.574  0.9124E+00  0.4885E+02
  10.584  0.9197E+00  0.4885E+02
  10.594  0.9270E+00  0.4886E+02
  10.604  0.9344E+00  0.4887E+02
  10.614  0.9419E+00  0.4888E+02
  10.624  0.9494E+00  0.4889E+02
  10.634  0.9570E+00  0.4890E+02
  10.644  0.9646E+00  0.4891E+02
  10.654  0.9722E+00  0.4892E+02
  10.664  0.9799E+00  0.4893E+02
  10.674  0.9877E+00  0.4894E+02
  10.684  0.9955E+00  0.4895E+02
  10.694  0.1003E+01  0.4896E+02
  10.704  0.1011E+01  0.4897E+02
  10.714  0.1019E+01  0.4898E+02
  10.724  0.1027E+01  0.4899E+02
  10.734  0.1035E+01  0.4900E+02
  10.744  0.1044E+01  0.4901E+02
  10.754  0.1052E+01  0.4902E+02
  10.764  0.1060E+01  0.4903E+02
  10.774  0.1068E+01  0.4904E+02
  10.784  0.1077E+01  0.4905E+02
  10.794  0.1085E+01  0.4907E+02
  10.804  0.1094E+01  0.4908E+02
  10.814  0.1103E+01  0.4909E+02
  10.824  0.1111E+01  0.4910E+02
  10.834  0.1120E+01  0.4911E+02
  10.844  0.1129E+01  0.4912E+02
  10.854  0.1138E+01  0.4913E+02
  10.864  0.1147E+01  0.4914E+02
  10.874  0.1157E+01  0.4916E+02
  10.884  0.1166E+01  0.4917E+02
  10.894  0.1176E+01  0.4918E+02
  10.904  0.1185E+01  0.4919E+02
  10.914  0.1195E+01  0.4920E+02
  10.924  0.1205E+01  0.4921E+02
  10.934  0.1215E+01  0.4923E+02
  10.944  0.1225E+01  0.4924E+02
  10.954  0.1236E+01  0.4925E+02
  10.964  0.1246E+01  0.4926E+02
  10.974  0.1257E+01  0.4928E+02
  10.984  0.1268E+01  0.4929E+02
  10.994  0.1279E+01  0.4930E+02
  11.004  0.1291E+01  0.4932E+02
  11.014  0.1302E+01  0.4933E+02
  11.024  0.1314E+01  0.4934E+02
  11.034  0.1327E+01  0.4935E+02
  11.044  0.1339E+01  0.4937E+02
  11.054  0.1352E+01  0.4938E+02
  11.064  0.1365E+01  0.4940E+02
  11.074  0.1378E+01  0.4941E+02
  11.084  0.1392E+01  0.4942E+02
  11.094  0.1406E+01  0.4944E+02
  11.104  0.1421E+01  0.4945E+02
  11.114  0.1436E+01  0.4947E+02
  11.124  0.1451E+01  0.4948E+02
  11.134  0.1466E+01  0.4949E+02
  11.144  0.1483E+01  0.4951E+02
  11.154  0.1499E+01  0.4952E+02
  11.164  0.1516E+01  0.4954E+02
  11.174  0.1533E+01  0.4955E+02
  11.184  0.1551E+01  0.4957E+02
  11.194  0.1570E+01  0.4959E+02
  11.204  0.1589E+01  0.4960E+02
  11.214  0.1608E+01  0.4962E+02
  11.224  0.1628E+01  0.4963E+02
  11.234  0.1649E+01  0.4965E+02
  11.244  0.1670E+01  0.4967E+02
  11.254  0.1691E+01  0.4968E+02
  11.264  0.1714E+01  0.4970E+02
  11.274  0.1736E+01  0.4972E+02
  11.284  0.1760E+01  0.4974E+02
  11.294  0.1784E+01  0.4975E+02
  11.304  0.1809E+01  0.4977E+02
  11.314  0.1834E+01  0.4979E+02
  11.324  0.1860E+01  0.4981E+02
  11.334  0.1887E+01  0.4983E+02
  11.344  0.1914E+01  0.4985E+02
  11.354  0.1942E+01  0.4987E+02
  11.364  0.1971E+01  0.4989E+02
  11.374  0.2001E+01  0.4991E+02
  11.384  0.2031E+01  0.4993E+02
  11.394  0.2062E+01  0.4995E+02
  11.404  0.2093E+01  0.4997E+02
  11.414  0.2125E+01  0.4999E+02
  11.424  0.2158E+01  0.5001E+02
  11.434  0.2192E+01  0.5003E+02
  11.444  0.2226E+01  0.5006E+02
  11.454  0.2261E+01  0.5008E+02
  11.464  0.2297E+01  0.5010E+02
  11.474  0.2333E+01  0.5012E+02
  11.484  0.2370E+01  0.5015E+02
  11.494  0.2408E+01  0.5017E+02
  11.504  0.2446E+01  0.5020E+02
  11.514  0.2485E+01  0.5022E+02
  11.524  0.2525E+01  0.5025E+02
  11.534  0.2565E+01  0.5027E+02
  11.544  0.2605E+01  0.5030E+02
  11.554  0.2647E+01  0.5032E+02
  11.564  0.2689E+01  0.5035E+02
  11.574  0.2731E+01  0.5038E+02
  11.584  0.2774E+01  0.5041E+02
  11.594  0.2817E+01  0.5043E+02
  11.604  0.2861E+01  0.5046E+02
  11.614  0.2906E+01  0.5049E+02
  11.624  0.2950E+01  0.5052E+02
  11.634  0.2995E+01  0.5055E+02
  11.644  0.3041E+01  0.5058E+02
  11.654  0.3087E+01  0.5061E+02
  11.664  0.3133E+01  0.5064E+02
  11.674  0.3179E+01  0.5068E+02
  11.684  0.3226E+01  0.5071E+02
  11.694  0.3273E+01  0.5074E+02
  11.704  0.3320E+01  0.5077E+02
  11.714  0.3367E+01  0.5081E+02
  11.724  0.3414E+01  0.5084E+02
  11.734  0.3462E+01  0.5088E+02
  11.744  0.3509E+01  0.5091E+02
  11.754  0.3556E+01  0.5095E+02
  11.764  0.3604E+01  0.5098E+02
  11.774  0.3651E+01  0.5102E+02
  11.784  0.3698E+01  0.5106E+02
  11.794  0.3745E+01  0.5109E+02
  11.804  0.3792E+01  0.5113E+02
  11.814  0.3839E+01  0.5117E+02
  11.824  0.3885E+01  0.5121E+02
  11.834  0.3932E+01  0.5125E+02
  11.844  0.3977E+01  0.5129E+02
  11.854  0.4023E+01  0.5133E+02
  11.864  0.4068E+01  0.5137E+02
  11.874  0.4113E+01  0.5141E+02
  11.884  0.4157E+01  0.5145E+02
  11.894  0.4201E+01  0.5149E+02
  11.904  0.4244E+01  0.5154E+02
  11.914  0.4287E+01  0.5158E+02
  11.924  0.4329E+01  0.5162E+02
  11.934  0.4370E+01  0.5167E+02
  11.944  0.4411E+01  0.5171E+02
  11.954  0.4452E+01  0.5176E+02
  11.964  0.4491E+01  0.5180E+02
  11.974  0.4530E+01  0.5185E+02
  11.984  0.4568E+01  0.5189E+02
  11.994  0.4606E+01  0.5194E+02
  12.004  0.4642E+01  0.5198E+02
  12.014  0.4678E+01  0.5203E+02
  12.024  0.4713E+01  0.5208E+02
  12.034  0.4747E+01  0.5213E+02
  12.044  0.4781E+01  0.5217E+02
  12.054  0.4814E+01  0.5222E+02
  12.064  0.4845E+01  0.5227E+02
  12.074  0.4876E+01  0.5232E+02
  12.084  0.4906E+01  0.5237E+02
  12.094  0.4936E+01  0.5242E+02
  12.104  0.4964E+01  0.5247E+02
  12.114  0.4991E+01  0.5252E+02
  12.124  0.5018E+01  0.5257E+02
  12.134  0.5044E+01  0.5262E+02
  12.144  0.5069E+01  0.5267E+02
  12.154  0.5093E+01  0.5272E+02
  12.164  0.5116E+01  0.5277E+02
  12.174  0.5138E+01  0.5282E+02
  12.184  0.5160E+01  0.5287E+02
  12.194  0.5180E+01  0.5292E+02
  12.204  0.5200E+01  0.5298E+02
  12.214  0.5219E+01  0.5303E+02
  12.224  0.5238E+01  0.5308E+02
  12.234  0.5255E+01  0.5313E+02
  12.244  0.5272E+01  0.5319E+02
  12.254  0.5288E+01  0.5324E+02
  12.264  0.5303E+01  0.5329E+02
  12.274  0.5318E+01  0.5335E+02
  12.284  0.5332E+01  0.5340E+02
  12.294  0.5345E+01  0.5345E+02
  12.304  0.5357E+01  0.5351E+02
  12.314  0.5369E+01  0.5356E+02
  12.324  0.5381E+01  0.5361E+02
  12.334  0.5391E+01  0.5367E+02
  12.344  0.5402E+01  0.5372E+02
  12.354  0.5411E+01  0.5378E+02
  12.364  0.5421E+01  0.5383E+02
  12.374  0.5429E+01  0.5388E+02
  12.384  0.5437E+01  0.5394E+02
  12.394  0.5445E+01  0.5399E+02
  12.404  0.5453E+01  0.5405E+02
  12.414  0.5460E+01  0.5410E+02
  12.424  0.5466E+01  0.5416E+02
  12.434  0.5473E+01  0.5421E+02
  12.444  0.5478E+01  0.5427E+02
  12.454  0.5484E+01  0.5432E+02
  12.464  0.5489E+01  0.5438E+02
  12.474  0.5495E+01  0.5443E+02
  12.484  0.5499E+01  0.5449E+02
  12.494  0.5504E+01  0.5454E+02
  12.504  0.5509E+01  0.5460E+02
  12.514  0.5513E+01  0.5465E+02
  12.524  0.5517E+01  0.5471E+02
  12.534  0.5521E+01  0.5476E+02
  12.544  0.5525E+01  0.5482E+02
  12.554  0.5528E+01  0.5487E+02
  12.564  0.5532E+01  0.5493E+02
  12.574  0.5535E+01  0.5498E+02
  12.584  0.5539E+01  0.5504E+02
  12.594  0.5542E+01  0.5509E+02
  12.604  0.5546E+01  0.5515E+02
  12.614  0.5549E+01  0.5520E+02
  12.624  0.5552E+01  0.5526E+02
  12.634  0.5555E+01  0.5532E+02
  12.644  0.5558E+01  0.5537E+02
  12.654  0.5561E+01  0.5543E+02
  12.664  0.5564E+01  0.5548E+02
  12.674  0.5567E+01  0.5554E+02
  12.684  0.5570E+01  0.5559E+02
  12.694  0.5573E+01  0.5565E+02
  12.704  0.5576E+01  0.5571E+02
  12.714  0.5579E+01  0.5576E+02
  12.724  0.5582E+01  0.5582E+02
  12.734  0.5585E+01  0.5587E+02
  12.744  0.5588E+01  0.5593E+02
  12.754  0.5591E+01  0.5598E+02
  12.764  0.5594E+01  0.5604E+02
  12.774  0.5596E+01  0.5610E+02
  12.784  0.5599E+01  0.5615E+02
  12.794  0.5601E+01  0.5621E+02
  12.804  0.5604E+01  0.5626E+02
  12.814  0.5606E+01  0.5632E+02
  12.824  0.5608E+01  0.5638E+02
  12.834  0.5610E+01  0.5643E+02
  12.844  0.5612E+01  0.5649E+02
  12.854  0.5614E+01  0.5654E+02
  12.864  0.5616E+01  0.5660E+02
  12.874  0.5617E+01  0.5666E+02
  12.884  0.5618E+01  0.5671E+02
  12.894  0.5620E+01  0.5677E+02
  12.904  0.5620E+01  0.5683E+02
  12.914  0.5621E+01  0.5688E+02
  12.924  0.5621E+01  0.5694E+02
  12.934  0.5621E+01  0.5699E+02
  12.944  0.5621E+01  0.5705E+02
  12.954  0.5620E+01  0.5711E+02
  12.964  0.5619E+01  0.5716E+02
  12.974  0.5618E+01  0.5722E+02
  12.984  0.5617E+01  0.5728E+02
  12.994  0.5615E+01  0.5733E+02
  13.004  0.5612E+01  0.5739E+02
  13.014  0.5609E+01  0.5744E+02
  13.024  0.5606E+01  0.5750E+02
  13.034  0.5603E+01  0.5756E+02
  13.044  0.5599E+01  0.5761E+02
  13.054  0.5594E+01  0.5767E+02
  13.064  0.5589E+01  0.5772E+02
  13.074  0.5584E+01  0.5778E+02
  13.084  0.5578E+01  0.5784E+02
  13.094  0.5572E+01  0.5789E+02
  13.104  0.5565E+01  0.5795E+02
  13.114  0.5558E+01  0.5800E+02
  13.124  0.5550E+01  0.5806E+02
  13.134  0.5541E+01  0.5811E+02
  13.144  0.5532E+01  0.5817E+02
  13.154  0.5523E+01  0.5822E+02
  13.164  0.5513E+01  0.5828E+02
  13.174  0.5503E+01  0.5833E+02
  13.184  0.5492E+01  0.5839E+02
  13.194  0.5480E+01  0.5844E+02
  13.204  0.5468E+01  0.5850E+02
  13.214  0.5456E+01  0.5855E+02
  13.224  0.5443E+01  0.5861E+02
  13.234  0.5429E+01  0.5866E+02
  13.244  0.5415E+01  0.5872E+02
  13.254  0.5401E+01  0.5877E+02
  13.264  0.5386E+01  0.5882E+02
  13.274  0.5371E+01  0.5888E+02
  13.284  0.5355E+01  0.5893E+02
  13.294  0.5339E+01  0.5898E+02
  13.304  0.5322E+01  0.5904E+02
  13.314  0.5305E+01  0.5909E+02
  13.324  0.5287E+01  0.5914E+02
  13.334  0.5270E+01  0.5920E+02
  13.344  0.5251E+01  0.5925E+02
  13.354  0.5233E+01  0.5930E+02
  13.364  0.5214E+01  0.5935E+02
  13.374  0.5195E+01  0.5940E+02
  13.384  0.5176E+01  0.5946E+02
  13.394  0.5156E+01  0.5951E+02
  13.404  0.5136E+01  0.5956E+02
  13.414  0.5116E+01  0.5961E+02
  13.424  0.5095E+01  0.5966E+02
  13.434  0.5075E+01  0.5971E+02
  13.444  0.5054E+01  0.5976E+02
  13.454  0.5034E+01  0.5981E+02
  13.464  0.5013E+01  0.5986E+02
  13.474  0.4992E+01  0.5991E+02
  13.484  0.4971E+01  0.5996E+02
  13.494  0.4950E+01  0.6001E+02
  13.504  0.4929E+01  0.6006E+02
  13.514  0.4908E+01  0.6011E+02
  13.524  0.4887E+01  0.6016E+02
  13.534  0.4866E+01  0.6021E+02
  13.544  0.4846E+01  0.6026E+02
  13.554  0.4825E+01  0.6031E+02
  13.564  0.4805E+01  0.6035E+02
  13.574  0.4784E+01  0.6040E+02
  13.584  0.4764E+01  0.6045E+02
  13.594  0.4744E+01  0.6050E+02
  13.604  0.4725E+01  0.6054E+02
  13.614  0.4705E+01  0.6059E+02
  13.624  0.4686E+01  0.6064E+02
  13.634  0.4667E+01  0.6068E+02
  13.644  0.4649E+01  0.6073E+02
  13.654  0.4631E+01  0.6078E+02
  13.664  0.4613E+01  0.6082E+02
  13.674  0.4595E+01  0.6087E+02
  13.684  0.4578E+01  0.6091E+02
  13.694  0.4561E+01  0.6096E+02
  13.704  0.4545E+01  0.6101E+02
  13.714  0.4529E+01  0.6105E+02
  13.724  0.4514E+01  0.6110E+02
  13.734  0.4499E+01  0.6114E+02
  13.744  0.4484E+01  0.6119E+02
  13.754  0.4470E+01  0.6123E+02
  13.764  0.4456E+01  0.6128E+02
  13.774  0.4443E+01  0.6132E+02
  13.784  0.4431E+01  0.6136E+02
  13.794  0.4419E+01  0.6141E+02
  13.804  0.4407E+01  0.6145E+02
  13.814  0.4396E+01  0.6150E+02
  13.824  0.4385E+01  0.6154E+02
  13.834  0.4375E+01  0.6158E+02
  13.844  0.4366E+01  0.6163E+02
  13.854  0.4356E+01  0.6167E+02
  13.864  0.4348E+01  0.6171E+02
  13.874  0.4340E+01  0.6176E+02
  13.884  0.4333E+01  0.6180E+02
  13.894  0.4326E+01  0.6184E+02
  13.904  0.4319E+01  0.6189E+02
  13.914  0.4314E+01  0.6193E+02
  13.924  0.4308E+01  0.6197E+02
  13.934  0.4304E+01  0.6202E+02
  13.944  0.4299E+01  0.6206E+02
  13.954  0.4296E+01  0.6210E+02
  13.964  0.4293E+01  0.6215E+02
  13.974  0.4290E+01  0.6219E+02
  13.984  0.4288E+01  0.6223E+02
  13.994  0.4286E+01  0.6227E+02
  14.004  0.4285E+01  0.6232E+02
  14.014  0.4285E+01  0.6236E+02
  14.024  0.4285E+01  0.6240E+02
  14.034  0.4285E+01  0.6245E+02
  14.044  0.4286E+01  0.6249E+02
  14.054  0.4288E+01  0.6253E+02
  14.064  0.4290E+01  0.6257E+02
  14.074  0.4293E+01  0.6262E+02
  14.084  0.4296E+01  0.6266E+02
  14.094  0.4299E+01  0.6270E+02
  14.104  0.4303E+01  0.6275E+02
  14.114  0.4308E+01  0.6279E+02
  14.124  0.4312E+01  0.6283E+02
  14.134  0.4318E+01  0.6288E+02
  14.144  0.4324E+01  0.6292E+02
  14.154  0.4330E+01  0.6296E+02
  14.164  0.4337E+01  0.6301E+02
  14.174  0.4344E+01  0.6305E+02
  14.184  0.4352E+01  0.6309E+02
  14.194  0.4360E+01  0.6314E+02
  14.204  0.4368E+01  0.6318E+02
  14.214  0.4377E+01  0.6322E+02
  14.224  0.4387E+01  0.6327E+02
  14.234  0.4397E+01  0.6331E+02
  14.244  0.4407E+01  0.6336E+02
  14.254  0.4417E+01  0.6340E+02
  14.264  0.4428E+01  0.6344E+02
  14.274  0.4440E+01  0.6349E+02
  14.284  0.4451E+01  0.6353E+02
  14.294  0.4463E+01  0.6358E+02
  14.304  0.4476E+01  0.6362E+02
  14.314  0.4489E+01  0.6367E+02
  14.324  0.4502E+01  0.6371E+02
  14.334  0.4515E+01  0.6376E+02
  14.344  0.4529E+01  0.6380E+02
  14.354  0.4543E+01  0.6385E+02
  14.364  0.4558E+01  0.6389E+02
  14.374  0.4573E+01  0.6394E+02
  14.384  0.4588E+01  0.6399E+02
  14.394  0.4603E+01  0.6403E+02
  14.404  0.4619E+01  0.6408E+02
  14.414  0.4634E+01  0.6412E+02
  14.424  0.4651E+01  0.6417E+02
  14.434  0.4667E+01  0.6422E+02
  14.444  0.4684E+01  0.6426E+02
  14.454  0.4700E+01  0.6431E+02
  14.464  0.4717E+01  0.6436E+02
  14.474  0.4734E+01  0.6441E+02
  14.484  0.4752E+01  0.6445E+02
  14.494  0.4769E+01  0.6450E+02
  14.504  0.4787E+01  0.6455E+02
  14.514  0.4805E+01  0.6460E+02
  14.524  0.4823E+01  0.6464E+02
  14.534  0.4840E+01  0.6469E+02
  14.544  0.4858E+01  0.6474E+02
  14.554  0.4877E+01  0.6479E+02
  14.564  0.4895E+01  0.6484E+02
  14.574  0.4913E+01  0.6489E+02
  14.584  0.4931E+01  0.6494E+02
  14.594  0.4949E+01  0.6499E+02
  14.604  0.4967E+01  0.6504E+02
  14.614  0.4985E+01  0.6509E+02
  14.624  0.5003E+01  0.6514E+02
  14.634  0.5021E+01  0.6519E+02
  14.644  0.5039E+01  0.6524E+02
  14.654  0.5057E+01  0.6529E+02
  14.664  0.5074E+01  0.6534E+02
  14.674  0.5092E+01  0.6539E+02
  14.684  0.5109E+01  0.6544E+02
  14.694  0.5126E+01  0.6549E+02
  14.704  0.5143E+01  0.6554E+02
  14.714  0.5159E+01  0.6560E+02
  14.724  0.5175E+01  0.6565E+02
  14.734  0.5191E+01  0.6570E+02
  14.744  0.5207E+01  0.6575E+02
  14.754  0.5222E+01  0.6580E+02
  14.764  0.5237E+01  0.6586E+02
  14.774  0.5251E+01  0.6591E+02
  14.784  0.5266E+01  0.6596E+02
  14.794  0.5279E+01  0.6601E+02
  14.804  0.5292E+01  0.6607E+02
  14.814  0.5305E+01  0.6612E+02
  14.824  0.5317E+01  0.6617E+02
  14.834  0.5329E+01  0.6623E+02
  14.844  0.5340E+01  0.6628E+02
  14.854  0.5351E+01  0.6633E+02
  14.864  0.5361E+01  0.6639E+02
  14.874  0.5370E+01  0.6644E+02
  14.884  0.5379E+01  0.6649E+02
  14.894  0.5387E+01  0.6655E+02
  14.904  0.5395E+01  0.6660E+02
  14.914  0.5402E+01  0.6666E+02
  14.924  0.5408E+01  0.6671E+02
  14.934  0.5413E+01  0.6676E+02
  14.944  0.5418E+01  0.6682E+02
  14.954  0.5422E+01  0.6687E+02
  14.964  0.5425E+01  0.6693E+02
  14.974  0.5427E+01  0.6698E+02
  14.984  0.5429E+01  0.6704E+02
  14.994  0.5430E+01  0.6709E+02
  15.004  0.5429E+01  0.6714E+02
  15.014  0.5429E+01  0.6720E+02
  15.024  0.5427E+01  0.6725E+02
  15.034  0.5424E+01  0.6731E+02
  15.044  0.5421E+01  0.6736E+02
  15.054  0.5416E+01  0.6741E+02
  15.064  0.5411E+01  0.6747E+02
  15.074  0.5405E+01  0.6752E+02
  15.084  0.5398E+01  0.6758E+02
  15.094  0.5390E+01  0.6763E+02
  15.104  0.5381E+01  0.6768E+02
  15.114  0.5371E+01  0.6774E+02
  15.124  0.5360E+01  0.6779E+02
  15.134  0.5349E+01  0.6785E+02
  15.144  0.5336E+01  0.6790E+02
  15.154  0.5322E+01  0.6795E+02
  15.164  0.5308E+01  0.6801E+02
  15.174  0.5292E+01  0.6806E+02
  15.184  0.5276E+01  0.6811E+02
  15.194  0.5259E+01  0.6816E+02
  15.204  0.5241E+01  0.6822E+02
  15.214  0.5221E+01  0.6827E+02
  15.224  0.5201E+01  0.6832E+02
  15.234  0.5180E+01  0.6837E+02
  15.244  0.5158E+01  0.6842E+02
  15.254  0.5136E+01  0.6847E+02
  15.264  0.5112E+01  0.6853E+02
  15.274  0.5087E+01  0.6858E+02
  15.284  0.5062E+01  0.6863E+02
  15.294  0.5036E+01  0.6868E+02
  15.304  0.5008E+01  0.6873E+02
  15.314  0.4980E+01  0.6878E+02
  15.324  0.4952E+01  0.6883E+02
  15.334  0.4922E+01  0.6888E+02
  15.344  0.4892E+01  0.6893E+02
  15.354  0.4860E+01  0.6897E+02
  15.364  0.4828E+01  0.6902E+02
  15.374  0.4796E+01  0.6907E+02
  15.384  0.4762E+01  0.6912E+02
  15.394  0.4728E+01  0.6917E+02
  15.404  0.4693E+01  0.6921E+02
  15.414  0.4658E+01  0.6926E+02
  15.424  0.4622E+01  0.6930E+02
  15.434  0.4585E+01  0.6935E+02
  15.444  0.4547E+01  0.6940E+02
  15.454  0.4509E+01  0.6944E+02
  15.464  0.4471E+01  0.6949E+02
  15.474  0.4432E+01  0.6953E+02
  15.484  0.4392E+01  0.6957E+02
  15.494  0.4352E+01  0.6962E+02
  15.504  0.4311E+01  0.6966E+02
  15.514  0.4270E+01  0.6970E+02
  15.524  0.4228E+01  0.6975E+02
  15.534  0.4186E+01  0.6979E+02
  15.544  0.4144E+01  0.6983E+02
  15.554  0.4101E+01  0.6987E+02
  15.564  0.4058E+01  0.6991E+02
  15.574  0.4014E+01  0.6995E+02
  15.584  0.3970E+01  0.6999E+02
  15.594  0.3926E+01  0.7003E+02
  15.604  0.3881E+01  0.7007E+02
  15.614  0.3837E+01  0.7011E+02
  15.624  0.3792E+01  0.7014E+02
  15.634  0.3747E+01  0.7018E+02
  15.644  0.3701E+01  0.7022E+02
  15.654  0.3656E+01  0.7026E+02
  15.664  0.3610E+01  0.7029E+02
  15.674  0.3564E+01  0.7033E+02
  15.684  0.3518E+01  0.7036E+02
  15.694  0.3472E+01  0.7040E+02
  15.704  0.3426E+01  0.7043E+02
  15.714  0.3380E+01  0.7047E+02
  15.724  0.3333E+01  0.7050E+02
  15.734  0.3287E+01  0.7053E+02
  15.744  0.3241E+01  0.7056E+02
  15.754  0.3195E+01  0.7060E+02
  15.764  0.3148E+01  0.7063E+02
  15.774  0.3102E+01  0.7066E+02
  15.784  0.3056E+01  0.7069E+02
  15.794  0.3010E+01  0.7072E+02
  15.804  0.2964E+01  0.7075E+02
  15.814  0.2918E+01  0.7078E+02
  15.824  0.2873E+01  0.7081E+02
  15.834  0.2827E+01  0.7084E+02
  15.844  0.2782E+01  0.7086E+02
  15.854  0.2737E+01  0.7089E+02
  15.864  0.2691E+01  0.7092E+02
  15.874  0.2647E+01  0.7094E+02
  15.884  0.2602E+01  0.7097E+02
  15.894  0.2558E+01  0.7100E+02
  15.904  0.2514E+01  0.7102E+02
  15.914  0.2470E+01  0.7105E+02
  15.924  0.2426E+01  0.7107E+02
  15.934  0.2383E+01  0.7109E+02
  15.944  0.2340E+01  0.7112E+02
  15.954  0.2297E+01  0.7114E+02
  15.964  0.2255E+01  0.7116E+02
  15.974  0.2213E+01  0.7118E+02
  15.984  0.2171E+01  0.7121E+02
  15.994  0.2129E+01  0.7123E+02
  16.004  0.2088E+01  0.7125E+02
  16.014  0.2048E+01  0.7127E+02
  16.024  0.2007E+01  0.7129E+02
  16.034  0.1967E+01  0.7131E+02
  16.044  0.1928E+01  0.7133E+02
  16.054  0.1888E+01  0.7135E+02
  16.064  0.1850E+01  0.7137E+02
  16.074  0.1811E+01  0.7138E+02
  16.084  0.1773E+01  0.7140E+02
  16.094  0.1735E+01  0.7142E+02
  16.104  0.1698E+01  0.7144E+02
  16.114  0.1661E+01  0.7145E+02
  16.124  0.1625E+01  0.7147E+02
  16.134  0.1589E+01  0.7148E+02
  16.144  0.1554E+01  0.7150E+02
  16.154  0.1519E+01  0.7151E+02
  16.164  0.1484E+01  0.7153E+02
  16.174  0.1450E+01  0.7154E+02
  16.184  0.1416E+01  0.7156E+02
  16.194  0.1383E+01  0.7157E+02
  16.204  0.1350E+01  0.7159E+02
  16.214  0.1318E+01  0.7160E+02
  16.224  0.1286E+01  0.7161E+02
  16.234  0.1254E+01  0.7162E+02
  16.244  0.1223E+01  0.7164E+02
  16.254  0.1193E+01  0.7165E+02
  16.264  0.1163E+01  0.7166E+02
  16.274  0.1133E+01  0.7167E+02
  16.284  0.1104E+01  0.7168E+02
  16.294  0.1076E+01  0.7169E+02
  16.304  0.1047E+01  0.7170E+02
  16.314  0.1020E+01  0.7171E+02
  16.324  0.9925E+00  0.7172E+02
  16.334  0.9657E+00  0.7173E+02
  16.344  0.9393E+00  0.7174E+02
  16.354  0.9135E+00  0.7175E+02
  16.364  0.8881E+00  0.7176E+02
  16.374  0.8632E+00  0.7177E+02
  16.384  0.8387E+00  0.7178E+02
  16.394  0.8147E+00  0.7179E+02
  16.404  0.7911E+00  0.7179E+02
  16.414  0.7680E+00  0.7180E+02
  16.424  0.7453E+00  0.7181E+02
  16.434  0.7231E+00  0.7182E+02
  16.444  0.7014E+00  0.7182E+02
  16.454  0.6800E+00  0.7183E+02
  16.464  0.6592E+00  0.7184E+02
  16.474  0.6387E+00  0.7184E+02
  16.484  0.6187E+00  0.7185E+02
  16.494  0.5992E+00  0.7186E+02
  16.504  0.5800E+00  0.7186E+02
  16.514  0.5613E+00  0.7187E+02
  16.524  0.5430E+00  0.7187E+02
  16.534  0.5251E+00  0.7188E+02
  16.544  0.5077E+00  0.7188E+02
  16.554  0.4906E+00  0.7189E+02
  16.564  0.4740E+00  0.7189E+02
  16.574  0.4578E+00  0.7190E+02
  16.584  0.4419E+00  0.7190E+02
  16.594  0.4265E+00  0.7191E+02
  16.604  0.4114E+00  0.7191E+02
  16.614  0.3967E+00  0.7191E+02
  16.624  0.3825E+00  0.7192E+02
  16.634  0.3686E+00  0.7192E+02
  16.644  0.3550E+00  0.7192E+02
  16.654  0.3418E+00  0.7193E+02
  16.664  0.3290E+00  0.7193E+02
  16.674  0.3166E+00  0.7193E+02
  16.684  0.3045E+00  0.7194E+02
  16.694  0.2927E+00  0.7194E+02
  16.704  0.2813E+00  0.7194E+02
  16.714  0.2702E+00  0.7195E+02
  16.724  0.2595E+00  0.7195E+02
  16.734  0.2491E+00  0.7195E+02
  16.744  0.2390E+00  0.7195E+02
  16.754  0.2292E+00  0.7196E+02
  16.764  0.2197E+00  0.7196E+02
  16.774  0.2105E+00  0.7196E+02
  16.784  0.2016E+00  0.7196E+02
  16.794  0.1930E+00  0.7196E+02
  16.804  0.1847E+00  0.7197E+02
  16.814  0.1767E+00  0.7197E+02
  16.824  0.1690E+00  0.7197E+02
  16.834  0.1615E+00  0.7197E+02
  16.844  0.1543E+00  0.7197E+02
  16.854  0.1473E+00  0.7197E+02
  16.864  0.1406E+00  0.7198E+02
  16.874  0.1341E+00  0.7198E+02
  16.884  0.1279E+00  0.7198E+02
  16.894  0.1219E+00  0.7198E+02
  16.904  0.1161E+00  0.7198E+02
  16.914  0.1106E+00  0.7198E+02
  16.924  0.1052E+00  0.7198E+02
  16.934  0.1001E+00  0.7198E+02
  16.944  0.9519E-01  0.7198E+02
  16.954  0.9047E-01  0.7199E+02
  16.964  0.8594E-01  0.7199E+02
  16.974  0.8160E-01  0.7199E+02
  16.984  0.7744E-01  0.7199E+02
  16.994  0.7345E-01  0.7199E+02
  17.004  0.6964E-01  0.7199E+02
  17.014  0.6599E-01  0.7199E+02
  17.024  0.6250E-01  0.7199E+02
  17.034  0.5916E-01  0.7199E+02
  17.044  0.5598E-01  0.7199E+02
  17.054  0.5294E-01  0.7199E+02
  17.064  0.5004E-01  0.7199E+02
  17.074  0.4727E-01  0.7199E+02
  17.084  0.4463E-01  0.7199E+02
  17.094  0.4212E-01  0.7199E+02
  17.104  0.3973E-01  0.7199E+02
  17.114  0.3746E-01  0.7199E+02
  17.124  0.3529E-01  0.7199E+02
  17.134  0.3324E-01  0.7200E+02
  17.144  0.3128E-01  0.7200E+02
  17.154  0.2943E-01  0.7200E+02
  17.164  0.2767E-01  0.7200E+02
  17.174  0.2601E-01  0.7200E+02
  17.184  0.2443E-01  0.7200E+02
  17.194  0.2293E-01  0.7200E+02
  17.204  0.2151E-01  0.7200E+02
  17.214  0.2017E-01  0.7200E+02
  17.224  0.1891E-01  0.7200E+02
  17.234  0.1771E-01  0.7200E+02
  17.244  0.1658E-01  0.7200E+02
  17.254  0.1551E-01  0.7200E+02
  17.264  0.1451E-01  0.7200E+02
  17.274  0.1356E-01  0.7200E+02
  17.284  0.1267E-01  0.7200E+02
  17.294  0.1183E-01  0.7200E+02
  17.304  0.1103E-01  0.7200E+02
  17.314  0.1029E-01  0.7200E+02
  17.324  0.9591E-02  0.7200E+02
  17.334  0.8934E-02  0.7200E+02
  17.344  0.8317E-02  0.7200E+02
  17.354  0.7739E-02  0.7200E+02
  17.364  0.7197E-02  0.7200E+02
  17.374  0.6689E-02  0.7200E+02
  17.384  0.6213E-02  0.7200E+02
  17.394  0.5768E-02  0.7200E+02
  17.404  0.5352E-02  0.7200E+02
  17.414  0.4963E-02  0.7200E+02
  17.424  0.4599E-02  0.7200E+02
  17.434  0.4260E-02  0.7200E+02
  17.444  0.3943E-02  0.7200E+02
  17.454  0.3648E-02  0.7200E+02
  17.464  0.3373E-02  0.7200E+02
  17.474  0.3117E-02  0.7200E+02
  17.484  0.2879E-02  0.7200E+02
  17.494  0.2657E-02  0.7200E+02
  17.504  0.2451E-02  0.7200E+02
  17.514  0.2260E-02  0.7200E+02
  17.524  0.2082E-02  0.7200E+02
  17.534  0.1917E-02  0.7200E+02
  17.544  0.1765E-02  0.7200E+02
  17.554  0.1623E-02  0.7200E+02
  17.564  0.1492E-02  0.7200E+02
  17.574  0.1371E-02  0.7200E+02
  17.584  0.1259E-02  0.7200E+02
  17.594  0.1155E-02  0.7200E+02
  17.604  0.1059E-02  0.7200E+02
  17.614  0.9706E-03  0.7200E+02
  17.624  0.8891E-03  0.7200E+02
  17.634  0.8139E-03  0.7200E+02
  17.644  0.7446E-03  0.7200E+02
  17.654  0.6809E-03  0.7200E+02
  17.664  0.6222E-03  0.7200E+02
  17.674  0.5682E-03  0.7200E+02
  17.684  0.5186E-03  0.7200E+02
  17.694  0.4731E-03  0.7200E+02
  17.704  0.4312E-03  0.7200E+02
  17.714  0.3929E-03  0.7200E+02
  17.724  0.3577E-03  0.7200E+02
  17.734  0.3255E-03  0.7200E+02
  17.744  0.2960E-03  0.7200E+02
  17.754  0.2691E-03  0.7200E+02
  17.764  0.2444E-03  0.7200E+02
  17.774  0.2219E-03  0.7200E+02
  17.784  0.2013E-03  0.7200E+02
  17.794  0.1825E-03  0.7200E+02
  17.804  0.1654E-03  0.7200E+02
  17.814  0.1498E-03  0.7200E+02
  17.824  0.1355E-03  0.7200E+02
  17.834  0.1226E-03  0.7200E+02
  17.844  0.1108E-03  0.7200E+02
  17.854  0.1001E-03  0.7200E+02
  17.864  0.9038E-04  0.7200E+02
  17.874  0.8155E-04  0.7200E+02
  17.884  0.7354E-04  0.7200E+02
  17.894  0.6627E-04  0.7200E+02
  17.904  0.5969E-04  0.7200E+02
  17.914  0.5372E-04  0.7200E+02
  17.924  0.4833E-04  0.7200E+02
  17.934  0.4344E-04  0.7200E+02
  17.944  0.3903E-04  0.7200E+02
  17.954  0.3505E-04  0.7200E+02
  17.964  0.3145E-04  0.7200E+02
  17.974  0.2820E-04  0.7200E+02
  17.984  0.2528E-04  0.7200E+02
  17.994  0.2264E-04  0.7200E+02
  18.004  0.2026E-04  0.7200E+02
  18.014  0.1813E-04  0.7200E+02
  18.024  0.1621E-04  0.7200E+02
  18.034  0.1448E-04  0.7200E+02
  18.044  0.1293E-04  0.7200E+02
  18.054  0.1154E-04  0.7200E+02
  18.064  0.1029E-04  0.7200E+02
  18.074  0.9171E-05  0.7200E+02
  18.084  0.8169E-05  0.7200E+02
  18.094  0.7271E-05  0.7200E+02
  18.104  0.6469E-05  0.7200E+02
  18.114  0.5751E-05  0.7200E+02
  18.124  0.5110E-05  0.7200E+02
