#  E (eV)   dos(E)     Int dos(E) EFermi =    2.576 eV
 -19.630  0.1597E-04  0.1597E-06
 -19.620  0.1710E-04  0.3307E-06
 -19.610  0.1830E-04  0.5137E-06
 -19.600  0.1959E-04  0.7095E-06
 -19.590  0.2096E-04  0.9191E-06
 -19.580  0.2242E-04  0.1143E-05
 -19.570  0.2397E-04  0.1383E-05
 -19.560  0.2564E-04  0.1639E-05
 -19.550  0.2741E-04  0.1913E-05
 -19.540  0.2929E-04  0.2206E-05
 -19.530  0.3130E-04  0.2519E-05
 -19.520  0.3344E-04  0.2854E-05
 -19.510  0.3572E-04  0.3211E-05
 -19.500  0.3815E-04  0.3593E-05
 -19.490  0.4074E-04  0.4000E-05
 -19.480  0.4349E-04  0.4435E-05
 -19.470  0.4641E-04  0.4899E-05
 -19.460  0.4953E-04  0.5394E-05
 -19.450  0.5284E-04  0.5923E-05
 -19.440  0.5636E-04  0.6486E-05
 -19.430  0.6010E-04  0.7087E-05
 -19.420  0.6408E-04  0.7728E-05
 -19.410  0.6831E-04  0.8411E-05
 -19.400  0.7281E-04  0.9139E-05
 -19.390  0.7758E-04  0.9915E-05
 -19.380  0.8265E-04  0.1074E-04
 -19.370  0.8803E-04  0.1162E-04
 -19.360  0.9374E-04  0.1256E-04
 -19.350  0.9980E-04  0.1356E-04
 -19.340  0.1062E-03  0.1462E-04
 -19.330  0.1131E-03  0.1575E-04
 -19.320  0.1203E-03  0.1695E-04
 -19.310  0.1280E-03  0.1823E-04
 -19.300  0.1361E-03  0.1959E-04
 -19.290  0.1447E-03  0.2104E-04
 -19.280  0.1539E-03  0.2258E-04
 -19.270  0.1636E-03  0.2422E-04
 -19.260  0.1738E-03  0.2595E-04
 -19.250  0.1847E-03  0.2780E-04
 -19.240  0.1962E-03  0.2976E-04
 -19.230  0.2084E-03  0.3185E-04
 -19.220  0.2213E-03  0.3406E-04
 -19.210  0.2349E-03  0.3641E-04
 -19.200  0.2493E-03  0.3890E-04
 -19.190  0.2646E-03  0.4155E-04
 -19.180  0.2807E-03  0.4435E-04
 -19.170  0.2978E-03  0.4733E-04
 -19.160  0.3158E-03  0.5049E-04
 -19.150  0.3349E-03  0.5384E-04
 -19.140  0.3550E-03  0.5739E-04
 -19.130  0.3763E-03  0.6115E-04
 -19.120  0.3987E-03  0.6514E-04
 -19.110  0.4224E-03  0.6936E-04
 -19.100  0.4475E-03  0.7384E-04
 -19.090  0.4739E-03  0.7858E-04
 -19.080  0.5017E-03  0.8359E-04
 -19.070  0.5312E-03  0.8890E-04
 -19.060  0.5622E-03  0.9453E-04
 -19.050  0.5949E-03  0.1005E-03
 -19.040  0.6294E-03  0.1068E-03
 -19.030  0.6657E-03  0.1134E-03
 -19.020  0.7040E-03  0.1205E-03
 -19.010  0.7444E-03  0.1279E-03
 -19.000  0.7869E-03  0.1358E-03
 -18.990  0.8316E-03  0.1441E-03
 -18.980  0.8788E-03  0.1529E-03
 -18.970  0.9284E-03  0.1622E-03
 -18.960  0.9806E-03  0.1720E-03
 -18.950  0.1036E-02  0.1823E-03
 -18.940  0.1093E-02  0.1933E-03
 -18.930  0.1154E-02  0.2048E-03
 -18.920  0.1218E-02  0.2170E-03
 -18.910  0.1285E-02  0.2298E-03
 -18.900  0.1356E-02  0.2434E-03
 -18.890  0.1430E-02  0.2577E-03
 -18.880  0.1508E-02  0.2728E-03
 -18.870  0.1590E-02  0.2887E-03
 -18.860  0.1676E-02  0.3054E-03
 -18.850  0.1767E-02  0.3231E-03
 -18.840  0.1861E-02  0.3417E-03
 -18.830  0.1961E-02  0.3613E-03
 -18.820  0.2065E-02  0.3820E-03
 -18.810  0.2175E-02  0.4037E-03
 -18.800  0.2290E-02  0.4266E-03
 -18.790  0.2410E-02  0.4507E-03
 -18.780  0.2537E-02  0.4761E-03
 -18.770  0.2669E-02  0.5028E-03
 -18.760  0.2808E-02  0.5309E-03
 -18.750  0.2953E-02  0.5604E-03
 -18.740  0.3106E-02  0.5915E-03
 -18.730  0.3265E-02  0.6241E-03
 -18.720  0.3432E-02  0.6584E-03
 -18.710  0.3607E-02  0.6945E-03
 -18.700  0.3790E-02  0.7324E-03
 -18.690  0.3981E-02  0.7722E-03
 -18.680  0.4181E-02  0.8140E-03
 -18.670  0.4391E-02  0.8579E-03
 -18.660  0.4610E-02  0.9040E-03
 -18.650  0.4839E-02  0.9524E-03
 -18.640  0.5078E-02  0.1003E-02
 -18.630  0.5328E-02  0.1056E-02
 -18.620  0.5590E-02  0.1112E-02
 -18.610  0.5862E-02  0.1171E-02
 -18.600  0.6147E-02  0.1232E-02
 -18.590  0.6445E-02  0.1297E-02
 -18.580  0.6756E-02  0.1364E-02
 -18.570  0.7080E-02  0.1435E-02
 -18.560  0.7418E-02  0.1509E-02
 -18.550  0.7771E-02  0.1587E-02
 -18.540  0.8139E-02  0.1669E-02
 -18.530  0.8523E-02  0.1754E-02
 -18.520  0.8923E-02  0.1843E-02
 -18.510  0.9340E-02  0.1936E-02
 -18.500  0.9775E-02  0.2034E-02
 -18.490  0.1023E-01  0.2136E-02
 -18.480  0.1070E-01  0.2243E-02
 -18.470  0.1119E-01  0.2355E-02
 -18.460  0.1170E-01  0.2472E-02
 -18.450  0.1223E-01  0.2595E-02
 -18.440  0.1279E-01  0.2723E-02
 -18.430  0.1336E-01  0.2856E-02
 -18.420  0.1396E-01  0.2996E-02
 -18.410  0.1459E-01  0.3142E-02
 -18.400  0.1524E-01  0.3294E-02
 -18.390  0.1591E-01  0.3453E-02
 -18.380  0.1661E-01  0.3619E-02
 -18.370  0.1734E-01  0.3793E-02
 -18.360  0.1810E-01  0.3974E-02
 -18.350  0.1888E-01  0.4162E-02
 -18.340  0.1970E-01  0.4359E-02
 -18.330  0.2054E-01  0.4565E-02
 -18.320  0.2142E-01  0.4779E-02
 -18.310  0.2234E-01  0.5002E-02
 -18.300  0.2328E-01  0.5235E-02
 -18.290  0.2426E-01  0.5478E-02
 -18.280  0.2528E-01  0.5731E-02
 -18.270  0.2634E-01  0.5994E-02
 -18.260  0.2743E-01  0.6268E-02
 -18.250  0.2857E-01  0.6554E-02
 -18.240  0.2975E-01  0.6852E-02
 -18.230  0.3096E-01  0.7161E-02
 -18.220  0.3223E-01  0.7484E-02
 -18.210  0.3353E-01  0.7819E-02
 -18.200  0.3488E-01  0.8168E-02
 -18.190  0.3628E-01  0.8531E-02
 -18.180  0.3773E-01  0.8908E-02
 -18.170  0.3923E-01  0.9300E-02
 -18.160  0.4078E-01  0.9708E-02
 -18.150  0.4239E-01  0.1013E-01
 -18.140  0.4405E-01  0.1057E-01
 -18.130  0.4576E-01  0.1103E-01
 -18.120  0.4753E-01  0.1151E-01
 -18.110  0.4936E-01  0.1200E-01
 -18.100  0.5125E-01  0.1251E-01
 -18.090  0.5321E-01  0.1304E-01
 -18.080  0.5523E-01  0.1360E-01
 -18.070  0.5731E-01  0.1417E-01
 -18.060  0.5946E-01  0.1476E-01
 -18.050  0.6167E-01  0.1538E-01
 -18.040  0.6396E-01  0.1602E-01
 -18.030  0.6632E-01  0.1668E-01
 -18.020  0.6876E-01  0.1737E-01
 -18.010  0.7127E-01  0.1808E-01
 -18.000  0.7385E-01  0.1882E-01
 -17.990  0.7652E-01  0.1959E-01
 -17.980  0.7927E-01  0.2038E-01
 -17.970  0.8210E-01  0.2120E-01
 -17.960  0.8501E-01  0.2205E-01
 -17.950  0.8801E-01  0.2293E-01
 -17.940  0.9110E-01  0.2384E-01
 -17.930  0.9428E-01  0.2478E-01
 -17.920  0.9756E-01  0.2576E-01
 -17.910  0.1009E+00  0.2677E-01
 -17.900  0.1044E+00  0.2781E-01
 -17.890  0.1079E+00  0.2889E-01
 -17.880  0.1116E+00  0.3001E-01
 -17.870  0.1154E+00  0.3116E-01
 -17.860  0.1192E+00  0.3236E-01
 -17.850  0.1232E+00  0.3359E-01
 -17.840  0.1273E+00  0.3486E-01
 -17.830  0.1315E+00  0.3617E-01
 -17.820  0.1358E+00  0.3753E-01
 -17.810  0.1402E+00  0.3893E-01
 -17.800  0.1447E+00  0.4038E-01
 -17.790  0.1494E+00  0.4188E-01
 -17.780  0.1542E+00  0.4342E-01
 -17.770  0.1591E+00  0.4501E-01
 -17.760  0.1641E+00  0.4665E-01
 -17.750  0.1692E+00  0.4834E-01
 -17.740  0.1745E+00  0.5009E-01
 -17.730  0.1799E+00  0.5189E-01
 -17.720  0.1854E+00  0.5374E-01
 -17.710  0.1911E+00  0.5565E-01
 -17.700  0.1969E+00  0.5762E-01
 -17.690  0.2029E+00  0.5965E-01
 -17.680  0.2089E+00  0.6174E-01
 -17.670  0.2152E+00  0.6389E-01
 -17.660  0.2215E+00  0.6610E-01
 -17.650  0.2281E+00  0.6839E-01
 -17.640  0.2347E+00  0.7073E-01
 -17.630  0.2415E+00  0.7315E-01
 -17.620  0.2485E+00  0.7563E-01
 -17.610  0.2556E+00  0.7819E-01
 -17.600  0.2629E+00  0.8082E-01
 -17.590  0.2704E+00  0.8352E-01
 -17.580  0.2779E+00  0.8630E-01
 -17.570  0.2857E+00  0.8916E-01
 -17.560  0.2936E+00  0.9210E-01
 -17.550  0.3017E+00  0.9511E-01
 -17.540  0.3099E+00  0.9821E-01
 -17.530  0.3183E+00  0.1014E+00
 -17.520  0.3269E+00  0.1047E+00
 -17.510  0.3357E+00  0.1080E+00
 -17.500  0.3446E+00  0.1115E+00
 -17.490  0.3537E+00  0.1150E+00
 -17.480  0.3630E+00  0.1186E+00
 -17.470  0.3724E+00  0.1224E+00
 -17.460  0.3820E+00  0.1262E+00
 -17.450  0.3918E+00  0.1301E+00
 -17.440  0.4018E+00  0.1341E+00
 -17.430  0.4119E+00  0.1382E+00
 -17.420  0.4223E+00  0.1425E+00
 -17.410  0.4328E+00  0.1468E+00
 -17.400  0.4435E+00  0.1512E+00
 -17.390  0.4544E+00  0.1558E+00
 -17.380  0.4654E+00  0.1604E+00
 -17.370  0.4767E+00  0.1652E+00
 -17.360  0.4881E+00  0.1701E+00
 -17.350  0.4997E+00  0.1751E+00
 -17.340  0.5115E+00  0.1802E+00
 -17.330  0.5235E+00  0.1854E+00
 -17.320  0.5357E+00  0.1908E+00
 -17.310  0.5480E+00  0.1962E+00
 -17.300  0.5606E+00  0.2019E+00
 -17.290  0.5733E+00  0.2076E+00
 -17.280  0.5862E+00  0.2134E+00
 -17.270  0.5993E+00  0.2194E+00
 -17.260  0.6126E+00  0.2256E+00
 -17.250  0.6261E+00  0.2318E+00
 -17.240  0.6398E+00  0.2382E+00
 -17.230  0.6536E+00  0.2448E+00
 -17.220  0.6676E+00  0.2514E+00
 -17.210  0.6818E+00  0.2583E+00
 -17.200  0.6962E+00  0.2652E+00
 -17.190  0.7108E+00  0.2723E+00
 -17.180  0.7256E+00  0.2796E+00
 -17.170  0.7405E+00  0.2870E+00
 -17.160  0.7556E+00  0.2945E+00
 -17.150  0.7709E+00  0.3023E+00
 -17.140  0.7864E+00  0.3101E+00
 -17.130  0.8020E+00  0.3181E+00
 -17.120  0.8178E+00  0.3263E+00
 -17.110  0.8338E+00  0.3347E+00
 -17.100  0.8500E+00  0.3432E+00
 -17.090  0.8663E+00  0.3518E+00
 -17.080  0.8828E+00  0.3606E+00
 -17.070  0.8995E+00  0.3696E+00
 -17.060  0.9163E+00  0.3788E+00
 -17.050  0.9333E+00  0.3881E+00
 -17.040  0.9504E+00  0.3976E+00
 -17.030  0.9677E+00  0.4073E+00
 -17.020  0.9852E+00  0.4172E+00
 -17.010  0.1003E+01  0.4272E+00
 -17.000  0.1021E+01  0.4374E+00
 -16.990  0.1038E+01  0.4478E+00
 -16.980  0.1056E+01  0.4584E+00
 -16.970  0.1075E+01  0.4691E+00
 -16.960  0.1093E+01  0.4800E+00
 -16.950  0.1111E+01  0.4911E+00
 -16.940  0.1130E+01  0.5024E+00
 -16.930  0.1149E+01  0.5139E+00
 -16.920  0.1168E+01  0.5256E+00
 -16.910  0.1187E+01  0.5375E+00
 -16.900  0.1206E+01  0.5495E+00
 -16.890  0.1225E+01  0.5618E+00
 -16.880  0.1244E+01  0.5742E+00
 -16.870  0.1264E+01  0.5869E+00
 -16.860  0.1283E+01  0.5997E+00
 -16.850  0.1303E+01  0.6127E+00
 -16.840  0.1323E+01  0.6259E+00
 -16.830  0.1342E+01  0.6394E+00
 -16.820  0.1362E+01  0.6530E+00
 -16.810  0.1382E+01  0.6668E+00
 -16.800  0.1403E+01  0.6808E+00
 -16.790  0.1423E+01  0.6951E+00
 -16.780  0.1443E+01  0.7095E+00
 -16.770  0.1463E+01  0.7241E+00
 -16.760  0.1484E+01  0.7390E+00
 -16.750  0.1504E+01  0.7540E+00
 -16.740  0.1525E+01  0.7693E+00
 -16.730  0.1546E+01  0.7847E+00
 -16.720  0.1566E+01  0.8004E+00
 -16.710  0.1587E+01  0.8163E+00
 -16.700  0.1608E+01  0.8323E+00
 -16.690  0.1629E+01  0.8486E+00
 -16.680  0.1650E+01  0.8651E+00
 -16.670  0.1671E+01  0.8818E+00
 -16.660  0.1692E+01  0.8987E+00
 -16.650  0.1713E+01  0.9159E+00
 -16.640  0.1734E+01  0.9332E+00
 -16.630  0.1755E+01  0.9508E+00
 -16.620  0.1776E+01  0.9685E+00
 -16.610  0.1797E+01  0.9865E+00
 -16.600  0.1818E+01  0.1005E+01
 -16.590  0.1839E+01  0.1023E+01
 -16.580  0.1861E+01  0.1042E+01
 -16.570  0.1882E+01  0.1060E+01
 -16.560  0.1903E+01  0.1080E+01
 -16.550  0.1924E+01  0.1099E+01
 -16.540  0.1945E+01  0.1118E+01
 -16.530  0.1967E+01  0.1138E+01
 -16.520  0.1988E+01  0.1158E+01
 -16.510  0.2009E+01  0.1178E+01
 -16.500  0.2030E+01  0.1198E+01
 -16.490  0.2051E+01  0.1219E+01
 -16.480  0.2072E+01  0.1239E+01
 -16.470  0.2094E+01  0.1260E+01
 -16.460  0.2115E+01  0.1281E+01
 -16.450  0.2136E+01  0.1303E+01
 -16.440  0.2157E+01  0.1324E+01
 -16.430  0.2178E+01  0.1346E+01
 -16.420  0.2199E+01  0.1368E+01
 -16.410  0.2220E+01  0.1390E+01
 -16.400  0.2241E+01  0.1413E+01
 -16.390  0.2262E+01  0.1435E+01
 -16.380  0.2283E+01  0.1458E+01
 -16.370  0.2304E+01  0.1481E+01
 -16.360  0.2324E+01  0.1504E+01
 -16.350  0.2345E+01  0.1528E+01
 -16.340  0.2366E+01  0.1552E+01
 -16.330  0.2387E+01  0.1575E+01
 -16.320  0.2407E+01  0.1600E+01
 -16.310  0.2428E+01  0.1624E+01
 -16.300  0.2448E+01  0.1648E+01
 -16.290  0.2469E+01  0.1673E+01
 -16.280  0.2490E+01  0.1698E+01
 -16.270  0.2510E+01  0.1723E+01
 -16.260  0.2530E+01  0.1748E+01
 -16.250  0.2551E+01  0.1774E+01
 -16.240  0.2571E+01  0.1800E+01
 -16.230  0.2592E+01  0.1825E+01
 -16.220  0.2612E+01  0.1852E+01
 -16.210  0.2632E+01  0.1878E+01
 -16.200  0.2652E+01  0.1904E+01
 -16.190  0.2672E+01  0.1931E+01
 -16.180  0.2693E+01  0.1958E+01
 -16.170  0.2713E+01  0.1985E+01
 -16.160  0.2733E+01  0.2012E+01
 -16.150  0.2753E+01  0.2040E+01
 -16.140  0.2773E+01  0.2068E+01
 -16.130  0.2793E+01  0.2096E+01
 -16.120  0.2813E+01  0.2124E+01
 -16.110  0.2833E+01  0.2152E+01
 -16.100  0.2852E+01  0.2181E+01
 -16.090  0.2872E+01  0.2209E+01
 -16.080  0.2892E+01  0.2238E+01
 -16.070  0.2912E+01  0.2267E+01
 -16.060  0.2932E+01  0.2297E+01
 -16.050  0.2951E+01  0.2326E+01
 -16.040  0.2971E+01  0.2356E+01
 -16.030  0.2991E+01  0.2386E+01
 -16.020  0.3011E+01  0.2416E+01
 -16.010  0.3030E+01  0.2446E+01
 -16.000  0.3050E+01  0.2477E+01
 -15.990  0.3070E+01  0.2507E+01
 -15.980  0.3090E+01  0.2538E+01
 -15.970  0.3109E+01  0.2569E+01
 -15.960  0.3129E+01  0.2601E+01
 -15.950  0.3149E+01  0.2632E+01
 -15.940  0.3168E+01  0.2664E+01
 -15.930  0.3188E+01  0.2696E+01
 -15.920  0.3208E+01  0.2728E+01
 -15.910  0.3228E+01  0.2760E+01
 -15.900  0.3247E+01  0.2793E+01
 -15.890  0.3267E+01  0.2825E+01
 -15.880  0.3287E+01  0.2858E+01
 -15.870  0.3307E+01  0.2891E+01
 -15.860  0.3326E+01  0.2924E+01
 -15.850  0.3346E+01  0.2958E+01
 -15.840  0.3366E+01  0.2992E+01
 -15.830  0.3386E+01  0.3025E+01
 -15.820  0.3406E+01  0.3060E+01
 -15.810  0.3426E+01  0.3094E+01
 -15.800  0.3446E+01  0.3128E+01
 -15.790  0.3466E+01  0.3163E+01
 -15.780  0.3486E+01  0.3198E+01
 -15.770  0.3506E+01  0.3233E+01
 -15.760  0.3526E+01  0.3268E+01
 -15.750  0.3546E+01  0.3304E+01
 -15.740  0.3566E+01  0.3339E+01
 -15.730  0.3586E+01  0.3375E+01
 -15.720  0.3607E+01  0.3411E+01
 -15.710  0.3627E+01  0.3447E+01
 -15.700  0.3647E+01  0.3484E+01
 -15.690  0.3667E+01  0.3521E+01
 -15.680  0.3688E+01  0.3557E+01
 -15.670  0.3708E+01  0.3595E+01
 -15.660  0.3728E+01  0.3632E+01
 -15.650  0.3749E+01  0.3669E+01
 -15.640  0.3769E+01  0.3707E+01
 -15.630  0.3790E+01  0.3745E+01
 -15.620  0.3810E+01  0.3783E+01
 -15.610  0.3831E+01  0.3821E+01
 -15.600  0.3851E+01  0.3860E+01
 -15.590  0.3872E+01  0.3899E+01
 -15.580  0.3892E+01  0.3937E+01
 -15.570  0.3913E+01  0.3977E+01
 -15.560  0.3933E+01  0.4016E+01
 -15.550  0.3954E+01  0.4055E+01
 -15.540  0.3975E+01  0.4095E+01
 -15.530  0.3995E+01  0.4135E+01
 -15.520  0.4016E+01  0.4175E+01
 -15.510  0.4036E+01  0.4216E+01
 -15.500  0.4057E+01  0.4256E+01
 -15.490  0.4077E+01  0.4297E+01
 -15.480  0.4098E+01  0.4338E+01
 -15.470  0.4118E+01  0.4379E+01
 -15.460  0.4138E+01  0.4421E+01
 -15.450  0.4159E+01  0.4462E+01
 -15.440  0.4179E+01  0.4504E+01
 -15.430  0.4199E+01  0.4546E+01
 -15.420  0.4219E+01  0.4588E+01
 -15.410  0.4239E+01  0.4630E+01
 -15.400  0.4259E+01  0.4673E+01
 -15.390  0.4279E+01  0.4716E+01
 -15.380  0.4299E+01  0.4759E+01
 -15.370  0.4319E+01  0.4802E+01
 -15.360  0.4338E+01  0.4845E+01
 -15.350  0.4358E+01  0.4889E+01
 -15.340  0.4377E+01  0.4933E+01
 -15.330  0.4396E+01  0.4977E+01
 -15.320  0.4415E+01  0.5021E+01
 -15.310  0.4434E+01  0.5065E+01
 -15.300  0.4453E+01  0.5110E+01
 -15.290  0.4471E+01  0.5154E+01
 -15.280  0.4489E+01  0.5199E+01
 -15.270  0.4507E+01  0.5244E+01
 -15.260  0.4525E+01  0.5290E+01
 -15.250  0.4543E+01  0.5335E+01
 -15.240  0.4561E+01  0.5381E+01
 -15.230  0.4578E+01  0.5427E+01
 -15.220  0.4595E+01  0.5472E+01
 -15.210  0.4611E+01  0.5519E+01
 -15.200  0.4628E+01  0.5565E+01
 -15.190  0.4644E+01  0.5611E+01
 -15.180  0.4660E+01  0.5658E+01
 -15.170  0.4675E+01  0.5705E+01
 -15.160  0.4691E+01  0.5752E+01
 -15.150  0.4705E+01  0.5799E+01
 -15.140  0.4720E+01  0.5846E+01
 -15.130  0.4734E+01  0.5893E+01
 -15.120  0.4748E+01  0.5941E+01
 -15.110  0.4761E+01  0.5988E+01
 -15.100  0.4775E+01  0.6036E+01
 -15.090  0.4787E+01  0.6084E+01
 -15.080  0.4799E+01  0.6132E+01
 -15.070  0.4811E+01  0.6180E+01
 -15.060  0.4823E+01  0.6228E+01
 -15.050  0.4834E+01  0.6277E+01
 -15.040  0.4844E+01  0.6325E+01
 -15.030  0.4854E+01  0.6373E+01
 -15.020  0.4864E+01  0.6422E+01
 -15.010  0.4873E+01  0.6471E+01
 -15.000  0.4881E+01  0.6520E+01
 -14.990  0.4889E+01  0.6569E+01
 -14.980  0.4897E+01  0.6618E+01
 -14.970  0.4904E+01  0.6667E+01
 -14.960  0.4910E+01  0.6716E+01
 -14.950  0.4916E+01  0.6765E+01
 -14.940  0.4922E+01  0.6814E+01
 -14.930  0.4927E+01  0.6863E+01
 -14.920  0.4931E+01  0.6913E+01
 -14.910  0.4934E+01  0.6962E+01
 -14.900  0.4937E+01  0.7011E+01
 -14.890  0.4940E+01  0.7061E+01
 -14.880  0.4942E+01  0.7110E+01
 -14.870  0.4943E+01  0.7160E+01
 -14.860  0.4943E+01  0.7209E+01
 -14.850  0.4943E+01  0.7258E+01
 -14.840  0.4942E+01  0.7308E+01
 -14.830  0.4941E+01  0.7357E+01
 -14.820  0.4939E+01  0.7407E+01
 -14.810  0.4936E+01  0.7456E+01
 -14.800  0.4933E+01  0.7505E+01
 -14.790  0.4929E+01  0.7555E+01
 -14.780  0.4924E+01  0.7604E+01
 -14.770  0.4919E+01  0.7653E+01
 -14.760  0.4913E+01  0.7702E+01
 -14.750  0.4906E+01  0.7751E+01
 -14.740  0.4898E+01  0.7800E+01
 -14.730  0.4890E+01  0.7849E+01
 -14.720  0.4881E+01  0.7898E+01
 -14.710  0.4872E+01  0.7947E+01
 -14.700  0.4862E+01  0.7995E+01
 -14.690  0.4851E+01  0.8044E+01
 -14.680  0.4839E+01  0.8092E+01
 -14.670  0.4826E+01  0.8140E+01
 -14.660  0.4813E+01  0.8189E+01
 -14.650  0.4800E+01  0.8237E+01
 -14.640  0.4785E+01  0.8284E+01
 -14.630  0.4770E+01  0.8332E+01
 -14.620  0.4754E+01  0.8380E+01
 -14.610  0.4737E+01  0.8427E+01
 -14.600  0.4720E+01  0.8474E+01
 -14.590  0.4702E+01  0.8521E+01
 -14.580  0.4683E+01  0.8568E+01
 -14.570  0.4664E+01  0.8615E+01
 -14.560  0.4644E+01  0.8661E+01
 -14.550  0.4623E+01  0.8707E+01
 -14.540  0.4602E+01  0.8753E+01
 -14.530  0.4580E+01  0.8799E+01
 -14.520  0.4557E+01  0.8845E+01
 -14.510  0.4534E+01  0.8890E+01
 -14.500  0.4510E+01  0.8935E+01
 -14.490  0.4485E+01  0.8980E+01
 -14.480  0.4460E+01  0.9025E+01
 -14.470  0.4434E+01  0.9069E+01
 -14.460  0.4407E+01  0.9113E+01
 -14.450  0.4380E+01  0.9157E+01
 -14.440  0.4353E+01  0.9200E+01
 -14.430  0.4324E+01  0.9244E+01
 -14.420  0.4296E+01  0.9287E+01
 -14.410  0.4266E+01  0.9329E+01
 -14.400  0.4236E+01  0.9372E+01
 -14.390  0.4206E+01  0.9414E+01
 -14.380  0.4175E+01  0.9455E+01
 -14.370  0.4143E+01  0.9497E+01
 -14.360  0.4111E+01  0.9538E+01
 -14.350  0.4079E+01  0.9579E+01
 -14.340  0.4046E+01  0.9619E+01
 -14.330  0.4012E+01  0.9659E+01
 -14.320  0.3978E+01  0.9699E+01
 -14.310  0.3944E+01  0.9739E+01
 -14.300  0.3909E+01  0.9778E+01
 -14.290  0.3874E+01  0.9816E+01
 -14.280  0.3839E+01  0.9855E+01
 -14.270  0.3803E+01  0.9893E+01
 -14.260  0.3766E+01  0.9931E+01
 -14.250  0.3730E+01  0.9968E+01
 -14.240  0.3693E+01  0.1000E+02
 -14.230  0.3655E+01  0.1004E+02
 -14.220  0.3618E+01  0.1008E+02
 -14.210  0.3580E+01  0.1011E+02
 -14.200  0.3542E+01  0.1015E+02
 -14.190  0.3503E+01  0.1018E+02
 -14.180  0.3465E+01  0.1022E+02
 -14.170  0.3426E+01  0.1025E+02
 -14.160  0.3387E+01  0.1029E+02
 -14.150  0.3347E+01  0.1032E+02
 -14.140  0.3308E+01  0.1035E+02
 -14.130  0.3268E+01  0.1039E+02
 -14.120  0.3228E+01  0.1042E+02
 -14.110  0.3189E+01  0.1045E+02
 -14.100  0.3148E+01  0.1048E+02
 -14.090  0.3108E+01  0.1051E+02
 -14.080  0.3068E+01  0.1054E+02
 -14.070  0.3028E+01  0.1057E+02
 -14.060  0.2987E+01  0.1060E+02
 -14.050  0.2947E+01  0.1063E+02
 -14.040  0.2907E+01  0.1066E+02
 -14.030  0.2866E+01  0.1069E+02
 -14.020  0.2826E+01  0.1072E+02
 -14.010  0.2785E+01  0.1075E+02
 -14.000  0.2745E+01  0.1077E+02
 -13.990  0.2705E+01  0.1080E+02
 -13.980  0.2664E+01  0.1083E+02
 -13.970  0.2624E+01  0.1085E+02
 -13.960  0.2584E+01  0.1088E+02
 -13.950  0.2544E+01  0.1091E+02
 -13.940  0.2504E+01  0.1093E+02
 -13.930  0.2465E+01  0.1095E+02
 -13.920  0.2425E+01  0.1098E+02
 -13.910  0.2385E+01  0.1100E+02
 -13.900  0.2346E+01  0.1103E+02
 -13.890  0.2307E+01  0.1105E+02
 -13.880  0.2268E+01  0.1107E+02
 -13.870  0.2230E+01  0.1109E+02
 -13.860  0.2191E+01  0.1112E+02
 -13.850  0.2153E+01  0.1114E+02
 -13.840  0.2115E+01  0.1116E+02
 -13.830  0.2077E+01  0.1118E+02
 -13.820  0.2040E+01  0.1120E+02
 -13.810  0.2002E+01  0.1122E+02
 -13.800  0.1965E+01  0.1124E+02
 -13.790  0.1929E+01  0.1126E+02
 -13.780  0.1892E+01  0.1128E+02
 -13.770  0.1856E+01  0.1130E+02
 -13.760  0.1821E+01  0.1131E+02
 -13.750  0.1785E+01  0.1133E+02
 -13.740  0.1750E+01  0.1135E+02
 -13.730  0.1715E+01  0.1137E+02
 -13.720  0.1681E+01  0.1138E+02
 -13.710  0.1647E+01  0.1140E+02
 -13.700  0.1613E+01  0.1142E+02
 -13.690  0.1580E+01  0.1143E+02
 -13.680  0.1547E+01  0.1145E+02
 -13.670  0.1514E+01  0.1146E+02
 -13.660  0.1482E+01  0.1148E+02
 -13.650  0.1450E+01  0.1149E+02
 -13.640  0.1419E+01  0.1151E+02
 -13.630  0.1388E+01  0.1152E+02
 -13.620  0.1357E+01  0.1153E+02
 -13.610  0.1327E+01  0.1155E+02
 -13.600  0.1297E+01  0.1156E+02
 -13.590  0.1267E+01  0.1157E+02
 -13.580  0.1238E+01  0.1159E+02
 -13.570  0.1210E+01  0.1160E+02
 -13.560  0.1182E+01  0.1161E+02
 -13.550  0.1154E+01  0.1162E+02
 -13.540  0.1126E+01  0.1163E+02
 -13.530  0.1099E+01  0.1164E+02
 -13.520  0.1073E+01  0.1165E+02
 -13.510  0.1047E+01  0.1166E+02
 -13.500  0.1021E+01  0.1167E+02
 -13.490  0.9959E+00  0.1168E+02
 -13.480  0.9711E+00  0.1169E+02
 -13.470  0.9466E+00  0.1170E+02
 -13.460  0.9226E+00  0.1171E+02
 -13.450  0.8991E+00  0.1172E+02
 -13.440  0.8759E+00  0.1173E+02
 -13.430  0.8531E+00  0.1174E+02
 -13.420  0.8308E+00  0.1175E+02
 -13.410  0.8089E+00  0.1176E+02
 -13.400  0.7874E+00  0.1176E+02
 -13.390  0.7663E+00  0.1177E+02
 -13.380  0.7456E+00  0.1178E+02
 -13.370  0.7253E+00  0.1179E+02
 -13.360  0.7054E+00  0.1179E+02
 -13.350  0.6859E+00  0.1180E+02
 -13.340  0.6669E+00  0.1181E+02
 -13.330  0.6482E+00  0.1181E+02
 -13.320  0.6299E+00  0.1182E+02
 -13.310  0.6119E+00  0.1183E+02
 -13.300  0.5944E+00  0.1183E+02
 -13.290  0.5773E+00  0.1184E+02
 -13.280  0.5605E+00  0.1184E+02
 -13.270  0.5441E+00  0.1185E+02
 -13.260  0.5280E+00  0.1185E+02
 -13.250  0.5124E+00  0.1186E+02
 -13.240  0.4971E+00  0.1186E+02
 -13.230  0.4821E+00  0.1187E+02
 -13.220  0.4675E+00  0.1187E+02
 -13.210  0.4532E+00  0.1188E+02
 -13.200  0.4393E+00  0.1188E+02
 -13.190  0.4257E+00  0.1189E+02
 -13.180  0.4125E+00  0.1189E+02
 -13.170  0.3995E+00  0.1189E+02
 -13.160  0.3869E+00  0.1190E+02
 -13.150  0.3747E+00  0.1190E+02
 -13.140  0.3627E+00  0.1191E+02
 -13.130  0.3510E+00  0.1191E+02
 -13.120  0.3397E+00  0.1191E+02
 -13.110  0.3286E+00  0.1192E+02
 -13.100  0.3178E+00  0.1192E+02
 -13.090  0.3073E+00  0.1192E+02
 -13.080  0.2971E+00  0.1193E+02
 -13.070  0.2872E+00  0.1193E+02
 -13.060  0.2775E+00  0.1193E+02
 -13.050  0.2682E+00  0.1193E+02
 -13.040  0.2590E+00  0.1194E+02
 -13.030  0.2502E+00  0.1194E+02
 -13.020  0.2416E+00  0.1194E+02
 -13.010  0.2332E+00  0.1194E+02
 -13.000  0.2251E+00  0.1195E+02
 -12.990  0.2172E+00  0.1195E+02
 -12.980  0.2095E+00  0.1195E+02
 -12.970  0.2021E+00  0.1195E+02
 -12.960  0.1949E+00  0.1195E+02
 -12.950  0.1879E+00  0.1196E+02
 -12.940  0.1811E+00  0.1196E+02
 -12.930  0.1745E+00  0.1196E+02
 -12.920  0.1681E+00  0.1196E+02
 -12.910  0.1620E+00  0.1196E+02
 -12.900  0.1560E+00  0.1196E+02
 -12.890  0.1502E+00  0.1197E+02
 -12.880  0.1446E+00  0.1197E+02
 -12.870  0.1391E+00  0.1197E+02
 -12.860  0.1339E+00  0.1197E+02
 -12.850  0.1288E+00  0.1197E+02
 -12.840  0.1239E+00  0.1197E+02
 -12.830  0.1191E+00  0.1197E+02
 -12.820  0.1145E+00  0.1197E+02
 -12.810  0.1101E+00  0.1198E+02
 -12.800  0.1058E+00  0.1198E+02
 -12.790  0.1016E+00  0.1198E+02
 -12.780  0.9764E-01  0.1198E+02
 -12.770  0.9377E-01  0.1198E+02
 -12.760  0.9003E-01  0.1198E+02
 -12.750  0.8643E-01  0.1198E+02
 -12.740  0.8295E-01  0.1198E+02
 -12.730  0.7959E-01  0.1198E+02
 -12.720  0.7635E-01  0.1198E+02
 -12.710  0.7323E-01  0.1198E+02
 -12.700  0.7022E-01  0.1199E+02
 -12.690  0.6732E-01  0.1199E+02
 -12.680  0.6453E-01  0.1199E+02
 -12.670  0.6184E-01  0.1199E+02
 -12.660  0.5925E-01  0.1199E+02
 -12.650  0.5675E-01  0.1199E+02
 -12.640  0.5435E-01  0.1199E+02
 -12.630  0.5204E-01  0.1199E+02
 -12.620  0.4981E-01  0.1199E+02
 -12.610  0.4767E-01  0.1199E+02
 -12.600  0.4561E-01  0.1199E+02
 -12.590  0.4364E-01  0.1199E+02
 -12.580  0.4173E-01  0.1199E+02
 -12.570  0.3991E-01  0.1199E+02
 -12.560  0.3815E-01  0.1199E+02
 -12.550  0.3647E-01  0.1199E+02
 -12.540  0.3485E-01  0.1199E+02
 -12.530  0.3329E-01  0.1199E+02
 -12.520  0.3180E-01  0.1199E+02
 -12.510  0.3037E-01  0.1199E+02
 -12.500  0.2899E-01  0.1199E+02
 -12.490  0.2768E-01  0.1199E+02
 -12.480  0.2641E-01  0.1199E+02
 -12.470  0.2520E-01  0.1200E+02
 -12.460  0.2404E-01  0.1200E+02
 -12.450  0.2293E-01  0.1200E+02
 -12.440  0.2186E-01  0.1200E+02
 -12.430  0.2084E-01  0.1200E+02
 -12.420  0.1986E-01  0.1200E+02
 -12.410  0.1893E-01  0.1200E+02
 -12.400  0.1803E-01  0.1200E+02
 -12.390  0.1718E-01  0.1200E+02
 -12.380  0.1636E-01  0.1200E+02
 -12.370  0.1557E-01  0.1200E+02
 -12.360  0.1482E-01  0.1200E+02
 -12.350  0.1411E-01  0.1200E+02
 -12.340  0.1342E-01  0.1200E+02
 -12.330  0.1277E-01  0.1200E+02
 -12.320  0.1214E-01  0.1200E+02
 -12.310  0.1154E-01  0.1200E+02
 -12.300  0.1097E-01  0.1200E+02
 -12.290  0.1043E-01  0.1200E+02
 -12.280  0.9910E-02  0.1200E+02
 -12.270  0.9415E-02  0.1200E+02
 -12.260  0.8942E-02  0.1200E+02
 -12.250  0.8491E-02  0.1200E+02
 -12.240  0.8061E-02  0.1200E+02
 -12.230  0.7651E-02  0.1200E+02
 -12.220  0.7261E-02  0.1200E+02
 -12.210  0.6889E-02  0.1200E+02
 -12.200  0.6534E-02  0.1200E+02
 -12.190  0.6197E-02  0.1200E+02
 -12.180  0.5875E-02  0.1200E+02
 -12.170  0.5569E-02  0.1200E+02
 -12.160  0.5278E-02  0.1200E+02
 -12.150  0.5001E-02  0.1200E+02
 -12.140  0.4738E-02  0.1200E+02
 -12.130  0.4487E-02  0.1200E+02
 -12.120  0.4249E-02  0.1200E+02
 -12.110  0.4022E-02  0.1200E+02
 -12.100  0.3807E-02  0.1200E+02
 -12.090  0.3602E-02  0.1200E+02
 -12.080  0.3408E-02  0.1200E+02
 -12.070  0.3224E-02  0.1200E+02
 -12.060  0.3048E-02  0.1200E+02
 -12.050  0.2882E-02  0.1200E+02
 -12.040  0.2724E-02  0.1200E+02
 -12.030  0.2574E-02  0.1200E+02
 -12.020  0.2432E-02  0.1200E+02
 -12.010  0.2298E-02  0.1200E+02
 -12.000  0.2170E-02  0.1200E+02
 -11.990  0.2049E-02  0.1200E+02
 -11.980  0.1934E-02  0.1200E+02
 -11.970  0.1825E-02  0.1200E+02
 -11.960  0.1723E-02  0.1200E+02
 -11.950  0.1625E-02  0.1200E+02
 -11.940  0.1533E-02  0.1200E+02
 -11.930  0.1445E-02  0.1200E+02
 -11.920  0.1363E-02  0.1200E+02
 -11.910  0.1284E-02  0.1200E+02
 -11.900  0.1210E-02  0.1200E+02
 -11.890  0.1140E-02  0.1200E+02
 -11.880  0.1074E-02  0.1200E+02
 -11.870  0.1011E-02  0.1200E+02
 -11.860  0.9523E-03  0.1200E+02
 -11.850  0.8964E-03  0.1200E+02
 -11.840  0.8436E-03  0.1200E+02
 -11.830  0.7938E-03  0.1200E+02
 -11.820  0.7467E-03  0.1200E+02
 -11.810  0.7023E-03  0.1200E+02
 -11.800  0.6603E-03  0.1200E+02
 -11.790  0.6208E-03  0.1200E+02
 -11.780  0.5835E-03  0.1200E+02
 -11.770  0.5483E-03  0.1200E+02
 -11.760  0.5151E-03  0.1200E+02
 -11.750  0.4838E-03  0.1200E+02
 -11.740  0.4543E-03  0.1200E+02
 -11.730  0.4265E-03  0.1200E+02
 -11.720  0.4004E-03  0.1200E+02
 -11.710  0.3757E-03  0.1200E+02
 -11.700  0.3525E-03  0.1200E+02
 -11.690  0.3307E-03  0.1200E+02
 -11.680  0.3101E-03  0.1200E+02
 -11.670  0.2908E-03  0.1200E+02
 -11.660  0.2726E-03  0.1200E+02
 -11.650  0.2555E-03  0.1200E+02
 -11.640  0.2394E-03  0.1200E+02
 -11.630  0.2242E-03  0.1200E+02
 -11.620  0.2100E-03  0.1200E+02
 -11.610  0.1967E-03  0.1200E+02
 -11.600  0.1841E-03  0.1200E+02
 -11.590  0.1723E-03  0.1200E+02
 -11.580  0.1613E-03  0.1200E+02
 -11.570  0.1509E-03  0.1200E+02
 -11.560  0.1411E-03  0.1200E+02
 -11.550  0.1320E-03  0.1200E+02
 -11.540  0.1234E-03  0.1200E+02
 -11.530  0.1153E-03  0.1200E+02
 -11.520  0.1078E-03  0.1200E+02
 -11.510  0.1007E-03  0.1200E+02
 -11.500  0.9407E-04  0.1200E+02
 -11.490  0.8786E-04  0.1200E+02
 -11.480  0.8203E-04  0.1200E+02
 -11.470  0.7658E-04  0.1200E+02
 -11.460  0.7147E-04  0.1200E+02
 -11.450  0.6669E-04  0.1200E+02
 -11.440  0.6222E-04  0.1200E+02
 -11.430  0.5803E-04  0.1200E+02
 -11.420  0.5411E-04  0.1200E+02
 -11.410  0.5045E-04  0.1200E+02
 -11.400  0.4702E-04  0.1200E+02
 -11.390  0.4382E-04  0.1200E+02
 -11.380  0.4083E-04  0.1200E+02
 -11.370  0.3803E-04  0.1200E+02
 -11.360  0.3542E-04  0.1200E+02
 -11.350  0.3298E-04  0.1200E+02
 -11.340  0.3070E-04  0.1200E+02
 -11.330  0.2857E-04  0.1200E+02
 -11.320  0.2658E-04  0.1200E+02
 -11.310  0.2473E-04  0.1200E+02
 -11.300  0.2300E-04  0.1200E+02
 -11.290  0.2138E-04  0.1200E+02
 -11.280  0.1988E-04  0.1200E+02
 -11.270  0.1848E-04  0.1200E+02
 -11.260  0.1717E-04  0.1200E+02
 -11.250  0.1595E-04  0.1200E+02
 -11.240  0.1482E-04  0.1200E+02
 -11.230  0.1376E-04  0.1200E+02
 -11.220  0.1277E-04  0.1200E+02
 -11.210  0.1186E-04  0.1200E+02
 -11.200  0.1100E-04  0.1200E+02
 -11.190  0.1021E-04  0.1200E+02
 -11.180  0.9470E-05  0.1200E+02
 -11.170  0.8782E-05  0.1200E+02
 -11.160  0.8143E-05  0.1200E+02
 -11.150  0.7548E-05  0.1200E+02
 -11.140  0.6996E-05  0.1200E+02
 -11.130  0.6482E-05  0.1200E+02
 -11.120  0.6005E-05  0.1200E+02
 -11.110  0.5562E-05  0.1200E+02
 -11.100  0.5150E-05  0.1200E+02
 -11.090  0.4768E-05  0.1200E+02
 -11.080  0.4413E-05  0.1200E+02
 -11.070  0.4084E-05  0.1200E+02
 -11.060  0.3778E-05  0.1200E+02
 -11.050  0.3495E-05  0.1200E+02
 -11.040  0.3232E-05  0.1200E+02
 -11.030  0.2988E-05  0.1200E+02
 -11.020  0.2762E-05  0.1200E+02
 -11.010  0.2552E-05  0.1200E+02
 -11.000  0.2358E-05  0.1200E+02
 -10.990  0.2178E-05  0.1200E+02
 -10.980  0.2012E-05  0.1200E+02
 -10.970  0.1858E-05  0.1200E+02
 -10.960  0.1715E-05  0.1200E+02
 -10.950  0.1583E-05  0.1200E+02
 -10.940  0.1460E-05  0.1200E+02
 -10.930  0.1347E-05  0.1200E+02
 -10.920  0.1243E-05  0.1200E+02
 -10.910  0.1146E-05  0.1200E+02
 -10.900  0.1057E-05  0.1200E+02
 -10.890  0.9738E-06  0.1200E+02
 -10.880  0.8974E-06  0.1200E+02
 -10.870  0.8269E-06  0.1200E+02
 -10.860  0.7617E-06  0.1200E+02
 -10.850  0.7015E-06  0.1200E+02
 -10.840  0.6459E-06  0.1200E+02
 -10.830  0.5946E-06  0.1200E+02
 -10.820  0.5472E-06  0.1200E+02
 -10.810  0.5036E-06  0.1200E+02
 -10.800  0.4633E-06  0.1200E+02
 -10.790  0.4261E-06  0.1200E+02
 -10.780  0.3919E-06  0.1200E+02
 -10.770  0.3603E-06  0.1200E+02
 -10.760  0.3313E-06  0.1200E+02
 -10.750  0.3045E-06  0.1200E+02
 -10.740  0.2798E-06  0.1200E+02
 -10.730  0.2571E-06  0.1200E+02
 -10.720  0.2362E-06  0.1200E+02
 -10.710  0.2170E-06  0.1200E+02
 -10.700  0.1993E-06  0.1200E+02
 -10.690  0.1830E-06  0.1200E+02
 -10.680  0.1681E-06  0.1200E+02
 -10.670  0.1544E-06  0.1200E+02
 -10.660  0.1418E-06  0.1200E+02
 -10.650  0.1302E-06  0.1200E+02
 -10.640  0.1196E-06  0.1200E+02
 -10.630  0.1098E-06  0.1200E+02
 -10.620  0.1009E-06  0.1200E+02
 -10.610  0.9273E-07  0.1200E+02
 -10.600  0.8525E-07  0.1200E+02
 -10.590  0.7842E-07  0.1200E+02
 -10.580  0.7217E-07  0.1200E+02
 -10.570  0.6648E-07  0.1200E+02
 -10.560  0.6129E-07  0.1200E+02
 -10.550  0.5658E-07  0.1200E+02
 -10.540  0.5230E-07  0.1200E+02
 -10.530  0.4842E-07  0.1200E+02
 -10.520  0.4492E-07  0.1200E+02
 -10.510  0.4177E-07  0.1200E+02
 -10.500  0.3895E-07  0.1200E+02
 -10.490  0.3643E-07  0.1200E+02
 -10.480  0.3420E-07  0.1200E+02
 -10.470  0.3224E-07  0.1200E+02
 -10.460  0.3053E-07  0.1200E+02
 -10.450  0.2906E-07  0.1200E+02
 -10.440  0.2781E-07  0.1200E+02
 -10.430  0.2679E-07  0.1200E+02
 -10.420  0.2597E-07  0.1200E+02
 -10.410  0.2536E-07  0.1200E+02
 -10.400  0.2494E-07  0.1200E+02
 -10.390  0.2471E-07  0.1200E+02
 -10.380  0.2467E-07  0.1200E+02
 -10.370  0.2481E-07  0.1200E+02
 -10.360  0.2514E-07  0.1200E+02
 -10.350  0.2566E-07  0.1200E+02
 -10.340  0.2636E-07  0.1200E+02
 -10.330  0.2726E-07  0.1200E+02
 -10.320  0.2834E-07  0.1200E+02
 -10.310  0.2963E-07  0.1200E+02
 -10.300  0.3112E-07  0.1200E+02
 -10.290  0.3283E-07  0.1200E+02
 -10.280  0.3477E-07  0.1200E+02
 -10.270  0.3693E-07  0.1200E+02
 -10.260  0.3935E-07  0.1200E+02
 -10.250  0.4202E-07  0.1200E+02
 -10.240  0.4497E-07  0.1200E+02
 -10.230  0.4821E-07  0.1200E+02
 -10.220  0.5176E-07  0.1200E+02
 -10.210  0.5564E-07  0.1200E+02
 -10.200  0.5987E-07  0.1200E+02
 -10.190  0.6448E-07  0.1200E+02
 -10.180  0.6949E-07  0.1200E+02
 -10.170  0.7493E-07  0.1200E+02
 -10.160  0.8083E-07  0.1200E+02
 -10.150  0.8723E-07  0.1200E+02
 -10.140  0.9415E-07  0.1200E+02
 -10.130  0.1016E-06  0.1200E+02
 -10.120  0.1097E-06  0.1200E+02
 -10.110  0.1185E-06  0.1200E+02
 -10.100  0.1279E-06  0.1200E+02
 -10.090  0.1381E-06  0.1200E+02
 -10.080  0.1491E-06  0.1200E+02
 -10.070  0.1610E-06  0.1200E+02
 -10.060  0.1738E-06  0.1200E+02
 -10.050  0.1876E-06  0.1200E+02
 -10.040  0.2025E-06  0.1200E+02
 -10.030  0.2185E-06  0.1200E+02
 -10.020  0.2357E-06  0.1200E+02
 -10.010  0.2543E-06  0.1200E+02
 -10.000  0.2743E-06  0.1200E+02
  -9.990  0.2958E-06  0.1200E+02
  -9.980  0.3189E-06  0.1200E+02
  -9.970  0.3438E-06  0.1200E+02
  -9.960  0.3705E-06  0.1200E+02
  -9.950  0.3993E-06  0.1200E+02
  -9.940  0.4302E-06  0.1200E+02
  -9.930  0.4634E-06  0.1200E+02
  -9.920  0.4991E-06  0.1200E+02
  -9.910  0.5374E-06  0.1200E+02
  -9.900  0.5785E-06  0.1200E+02
  -9.890  0.6227E-06  0.1200E+02
  -9.880  0.6701E-06  0.1200E+02
  -9.870  0.7209E-06  0.1200E+02
  -9.860  0.7755E-06  0.1200E+02
  -9.850  0.8340E-06  0.1200E+02
  -9.840  0.8968E-06  0.1200E+02
  -9.830  0.9641E-06  0.1200E+02
  -9.820  0.1036E-05  0.1200E+02
  -9.810  0.1114E-05  0.1200E+02
  -9.800  0.1196E-05  0.1200E+02
  -9.790  0.1285E-05  0.1200E+02
  -9.780  0.1380E-05  0.1200E+02
  -9.770  0.1482E-05  0.1200E+02
  -9.760  0.1591E-05  0.1200E+02
  -9.750  0.1707E-05  0.1200E+02
  -9.740  0.1832E-05  0.1200E+02
  -9.730  0.1966E-05  0.1200E+02
  -9.720  0.2109E-05  0.1200E+02
  -9.710  0.2261E-05  0.1200E+02
  -9.700  0.2425E-05  0.1200E+02
  -9.690  0.2599E-05  0.1200E+02
  -9.680  0.2786E-05  0.1200E+02
  -9.670  0.2985E-05  0.1200E+02
  -9.660  0.3198E-05  0.1200E+02
  -9.650  0.3426E-05  0.1200E+02
  -9.640  0.3669E-05  0.1200E+02
  -9.630  0.3928E-05  0.1200E+02
  -9.620  0.4205E-05  0.1200E+02
  -9.610  0.4501E-05  0.1200E+02
  -9.600  0.4816E-05  0.1200E+02
  -9.590  0.5152E-05  0.1200E+02
  -9.580  0.5511E-05  0.1200E+02
  -9.570  0.5894E-05  0.1200E+02
  -9.560  0.6301E-05  0.1200E+02
  -9.550  0.6736E-05  0.1200E+02
  -9.540  0.7199E-05  0.1200E+02
  -9.530  0.7693E-05  0.1200E+02
  -9.520  0.8219E-05  0.1200E+02
  -9.510  0.8779E-05  0.1200E+02
  -9.500  0.9375E-05  0.1200E+02
  -9.490  0.1001E-04  0.1200E+02
  -9.480  0.1069E-04  0.1200E+02
  -9.470  0.1140E-04  0.1200E+02
  -9.460  0.1217E-04  0.1200E+02
  -9.450  0.1298E-04  0.1200E+02
  -9.440  0.1385E-04  0.1200E+02
  -9.430  0.1477E-04  0.1200E+02
  -9.420  0.1575E-04  0.1200E+02
  -9.410  0.1679E-04  0.1200E+02
  -9.400  0.1789E-04  0.1200E+02
  -9.390  0.1906E-04  0.1200E+02
  -9.380  0.2031E-04  0.1200E+02
  -9.370  0.2163E-04  0.1200E+02
  -9.360  0.2304E-04  0.1200E+02
  -9.350  0.2453E-04  0.1200E+02
  -9.340  0.2611E-04  0.1200E+02
  -9.330  0.2779E-04  0.1200E+02
  -9.320  0.2957E-04  0.1200E+02
  -9.310  0.3146E-04  0.1200E+02
  -9.300  0.3347E-04  0.1200E+02
  -9.290  0.3559E-04  0.1200E+02
  -9.280  0.3785E-04  0.1200E+02
  -9.270  0.4023E-04  0.1200E+02
  -9.260  0.4276E-04  0.1200E+02
  -9.250  0.4544E-04  0.1200E+02
  -9.240  0.4828E-04  0.1200E+02
  -9.230  0.5128E-04  0.1200E+02
  -9.220  0.5446E-04  0.1200E+02
  -9.210  0.5783E-04  0.1200E+02
  -9.200  0.6139E-04  0.1200E+02
  -9.190  0.6516E-04  0.1200E+02
  -9.180  0.6915E-04  0.1200E+02
  -9.170  0.7337E-04  0.1200E+02
  -9.160  0.7783E-04  0.1200E+02
  -9.150  0.8255E-04  0.1200E+02
  -9.140  0.8753E-04  0.1200E+02
  -9.130  0.9280E-04  0.1200E+02
  -9.120  0.9836E-04  0.1200E+02
  -9.110  0.1042E-03  0.1200E+02
  -9.100  0.1104E-03  0.1200E+02
  -9.090  0.1170E-03  0.1200E+02
  -9.080  0.1239E-03  0.1200E+02
  -9.070  0.1312E-03  0.1200E+02
  -9.060  0.1389E-03  0.1200E+02
  -9.050  0.1471E-03  0.1200E+02
  -9.040  0.1556E-03  0.1200E+02
  -9.030  0.1647E-03  0.1200E+02
  -9.020  0.1742E-03  0.1200E+02
  -9.010  0.1843E-03  0.1200E+02
  -9.000  0.1949E-03  0.1200E+02
  -8.990  0.2060E-03  0.1200E+02
  -8.980  0.2178E-03  0.1200E+02
  -8.970  0.2302E-03  0.1200E+02
  -8.960  0.2433E-03  0.1200E+02
  -8.950  0.2570E-03  0.1200E+02
  -8.940  0.2715E-03  0.1200E+02
  -8.930  0.2867E-03  0.1200E+02
  -8.920  0.3027E-03  0.1200E+02
  -8.910  0.3196E-03  0.1200E+02
  -8.900  0.3373E-03  0.1200E+02
  -8.890  0.3560E-03  0.1200E+02
  -8.880  0.3756E-03  0.1200E+02
  -8.870  0.3962E-03  0.1200E+02
  -8.860  0.4179E-03  0.1200E+02
  -8.850  0.4407E-03  0.1200E+02
  -8.840  0.4646E-03  0.1200E+02
  -8.830  0.4897E-03  0.1200E+02
  -8.820  0.5161E-03  0.1200E+02
  -8.810  0.5438E-03  0.1200E+02
  -8.800  0.5729E-03  0.1200E+02
  -8.790  0.6035E-03  0.1200E+02
  -8.780  0.6355E-03  0.1200E+02
  -8.770  0.6691E-03  0.1200E+02
  -8.760  0.7044E-03  0.1200E+02
  -8.750  0.7414E-03  0.1200E+02
  -8.740  0.7802E-03  0.1200E+02
  -8.730  0.8209E-03  0.1200E+02
  -8.720  0.8635E-03  0.1200E+02
  -8.710  0.9081E-03  0.1200E+02
  -8.700  0.9549E-03  0.1200E+02
  -8.690  0.1004E-02  0.1200E+02
  -8.680  0.1055E-02  0.1200E+02
  -8.670  0.1109E-02  0.1200E+02
  -8.660  0.1165E-02  0.1200E+02
  -8.650  0.1224E-02  0.1200E+02
  -8.640  0.1286E-02  0.1200E+02
  -8.630  0.1350E-02  0.1200E+02
  -8.620  0.1418E-02  0.1200E+02
  -8.610  0.1488E-02  0.1200E+02
  -8.600  0.1562E-02  0.1200E+02
  -8.590  0.1639E-02  0.1200E+02
  -8.580  0.1720E-02  0.1200E+02
  -8.570  0.1804E-02  0.1200E+02
  -8.560  0.1892E-02  0.1200E+02
  -8.550  0.1985E-02  0.1200E+02
  -8.540  0.2081E-02  0.1200E+02
  -8.530  0.2181E-02  0.1200E+02
  -8.520  0.2286E-02  0.1200E+02
  -8.510  0.2395E-02  0.1200E+02
  -8.500  0.2509E-02  0.1200E+02
  -8.490  0.2628E-02  0.1200E+02
  -8.480  0.2753E-02  0.1200E+02
  -8.470  0.2882E-02  0.1200E+02
  -8.460  0.3017E-02  0.1200E+02
  -8.450  0.3158E-02  0.1200E+02
  -8.440  0.3305E-02  0.1200E+02
  -8.430  0.3458E-02  0.1200E+02
  -8.420  0.3618E-02  0.1200E+02
  -8.410  0.3784E-02  0.1200E+02
  -8.400  0.3957E-02  0.1200E+02
  -8.390  0.4138E-02  0.1200E+02
  -8.380  0.4326E-02  0.1200E+02
  -8.370  0.4521E-02  0.1200E+02
  -8.360  0.4725E-02  0.1200E+02
  -8.350  0.4936E-02  0.1200E+02
  -8.340  0.5157E-02  0.1200E+02
  -8.330  0.5386E-02  0.1200E+02
  -8.320  0.5624E-02  0.1200E+02
  -8.310  0.5872E-02  0.1200E+02
  -8.300  0.6130E-02  0.1200E+02
  -8.290  0.6398E-02  0.1200E+02
  -8.280  0.6676E-02  0.1200E+02
  -8.270  0.6965E-02  0.1200E+02
  -8.260  0.7266E-02  0.1200E+02
  -8.250  0.7578E-02  0.1200E+02
  -8.240  0.7902E-02  0.1200E+02
  -8.230  0.8238E-02  0.1200E+02
  -8.220  0.8588E-02  0.1200E+02
  -8.210  0.8950E-02  0.1200E+02
  -8.200  0.9326E-02  0.1200E+02
  -8.190  0.9717E-02  0.1200E+02
  -8.180  0.1012E-01  0.1200E+02
  -8.170  0.1054E-01  0.1200E+02
  -8.160  0.1098E-01  0.1200E+02
  -8.150  0.1143E-01  0.1200E+02
  -8.140  0.1190E-01  0.1200E+02
  -8.130  0.1238E-01  0.1200E+02
  -8.120  0.1288E-01  0.1200E+02
  -8.110  0.1340E-01  0.1200E+02
  -8.100  0.1394E-01  0.1200E+02
  -8.090  0.1450E-01  0.1200E+02
  -8.080  0.1508E-01  0.1200E+02
  -8.070  0.1567E-01  0.1200E+02
  -8.060  0.1629E-01  0.1200E+02
  -8.050  0.1693E-01  0.1200E+02
  -8.040  0.1759E-01  0.1200E+02
  -8.030  0.1828E-01  0.1200E+02
  -8.020  0.1899E-01  0.1200E+02
  -8.010  0.1972E-01  0.1200E+02
  -8.000  0.2048E-01  0.1201E+02
  -7.990  0.2126E-01  0.1201E+02
  -7.980  0.2207E-01  0.1201E+02
  -7.970  0.2290E-01  0.1201E+02
  -7.960  0.2376E-01  0.1201E+02
  -7.950  0.2466E-01  0.1201E+02
  -7.940  0.2558E-01  0.1201E+02
  -7.930  0.2652E-01  0.1201E+02
  -7.920  0.2750E-01  0.1201E+02
  -7.910  0.2852E-01  0.1201E+02
  -7.900  0.2956E-01  0.1201E+02
  -7.890  0.3063E-01  0.1201E+02
  -7.880  0.3174E-01  0.1201E+02
  -7.870  0.3289E-01  0.1201E+02
  -7.860  0.3407E-01  0.1201E+02
  -7.850  0.3528E-01  0.1201E+02
  -7.840  0.3654E-01  0.1201E+02
  -7.830  0.3783E-01  0.1201E+02
  -7.820  0.3916E-01  0.1201E+02
  -7.810  0.4053E-01  0.1201E+02
  -7.800  0.4194E-01  0.1201E+02
  -7.790  0.4339E-01  0.1201E+02
  -7.780  0.4488E-01  0.1201E+02
  -7.770  0.4642E-01  0.1201E+02
  -7.760  0.4800E-01  0.1201E+02
  -7.750  0.4963E-01  0.1201E+02
  -7.740  0.5131E-01  0.1201E+02
  -7.730  0.5303E-01  0.1201E+02
  -7.720  0.5480E-01  0.1202E+02
  -7.710  0.5662E-01  0.1202E+02
  -7.700  0.5849E-01  0.1202E+02
  -7.690  0.6041E-01  0.1202E+02
  -7.680  0.6239E-01  0.1202E+02
  -7.670  0.6441E-01  0.1202E+02
  -7.660  0.6650E-01  0.1202E+02
  -7.650  0.6863E-01  0.1202E+02
  -7.640  0.7083E-01  0.1202E+02
  -7.630  0.7308E-01  0.1202E+02
  -7.620  0.7539E-01  0.1202E+02
  -7.610  0.7776E-01  0.1202E+02
  -7.600  0.8020E-01  0.1202E+02
  -7.590  0.8269E-01  0.1202E+02
  -7.580  0.8525E-01  0.1202E+02
  -7.570  0.8787E-01  0.1203E+02
  -7.560  0.9056E-01  0.1203E+02
  -7.550  0.9331E-01  0.1203E+02
  -7.540  0.9613E-01  0.1203E+02
  -7.530  0.9902E-01  0.1203E+02
  -7.520  0.1020E+00  0.1203E+02
  -7.510  0.1050E+00  0.1203E+02
  -7.500  0.1081E+00  0.1203E+02
  -7.490  0.1113E+00  0.1203E+02
  -7.480  0.1145E+00  0.1203E+02
  -7.470  0.1179E+00  0.1204E+02
  -7.460  0.1213E+00  0.1204E+02
  -7.450  0.1247E+00  0.1204E+02
  -7.440  0.1283E+00  0.1204E+02
  -7.430  0.1319E+00  0.1204E+02
  -7.420  0.1356E+00  0.1204E+02
  -7.410  0.1394E+00  0.1204E+02
  -7.400  0.1433E+00  0.1205E+02
  -7.390  0.1473E+00  0.1205E+02
  -7.380  0.1513E+00  0.1205E+02
  -7.370  0.1554E+00  0.1205E+02
  -7.360  0.1596E+00  0.1205E+02
  -7.350  0.1639E+00  0.1205E+02
  -7.340  0.1683E+00  0.1205E+02
  -7.330  0.1728E+00  0.1206E+02
  -7.320  0.1774E+00  0.1206E+02
  -7.310  0.1820E+00  0.1206E+02
  -7.300  0.1868E+00  0.1206E+02
  -7.290  0.1916E+00  0.1206E+02
  -7.280  0.1965E+00  0.1207E+02
  -7.270  0.2016E+00  0.1207E+02
  -7.260  0.2067E+00  0.1207E+02
  -7.250  0.2119E+00  0.1207E+02
  -7.240  0.2172E+00  0.1207E+02
  -7.230  0.2226E+00  0.1208E+02
  -7.220  0.2281E+00  0.1208E+02
  -7.210  0.2337E+00  0.1208E+02
  -7.200  0.2394E+00  0.1208E+02
  -7.190  0.2452E+00  0.1209E+02
  -7.180  0.2510E+00  0.1209E+02
  -7.170  0.2570E+00  0.1209E+02
  -7.160  0.2631E+00  0.1209E+02
  -7.150  0.2693E+00  0.1210E+02
  -7.140  0.2756E+00  0.1210E+02
  -7.130  0.2820E+00  0.1210E+02
  -7.120  0.2884E+00  0.1210E+02
  -7.110  0.2950E+00  0.1211E+02
  -7.100  0.3017E+00  0.1211E+02
  -7.090  0.3085E+00  0.1211E+02
  -7.080  0.3154E+00  0.1212E+02
  -7.070  0.3223E+00  0.1212E+02
  -7.060  0.3294E+00  0.1212E+02
  -7.050  0.3366E+00  0.1213E+02
  -7.040  0.3439E+00  0.1213E+02
  -7.030  0.3512E+00  0.1213E+02
  -7.020  0.3587E+00  0.1214E+02
  -7.010  0.3663E+00  0.1214E+02
  -7.000  0.3740E+00  0.1214E+02
  -6.990  0.3817E+00  0.1215E+02
  -6.980  0.3896E+00  0.1215E+02
  -6.970  0.3976E+00  0.1216E+02
  -6.960  0.4056E+00  0.1216E+02
  -6.950  0.4138E+00  0.1216E+02
  -6.940  0.4220E+00  0.1217E+02
  -6.930  0.4303E+00  0.1217E+02
  -6.920  0.4388E+00  0.1218E+02
  -6.910  0.4473E+00  0.1218E+02
  -6.900  0.4559E+00  0.1219E+02
  -6.890  0.4646E+00  0.1219E+02
  -6.880  0.4734E+00  0.1220E+02
  -6.870  0.4823E+00  0.1220E+02
  -6.860  0.4912E+00  0.1221E+02
  -6.850  0.5003E+00  0.1221E+02
  -6.840  0.5094E+00  0.1222E+02
  -6.830  0.5186E+00  0.1222E+02
  -6.820  0.5279E+00  0.1223E+02
  -6.810  0.5373E+00  0.1223E+02
  -6.800  0.5467E+00  0.1224E+02
  -6.790  0.5562E+00  0.1224E+02
  -6.780  0.5658E+00  0.1225E+02
  -6.770  0.5755E+00  0.1225E+02
  -6.760  0.5852E+00  0.1226E+02
  -6.750  0.5950E+00  0.1227E+02
  -6.740  0.6049E+00  0.1227E+02
  -6.730  0.6148E+00  0.1228E+02
  -6.720  0.6248E+00  0.1228E+02
  -6.710  0.6348E+00  0.1229E+02
  -6.700  0.6449E+00  0.1230E+02
  -6.690  0.6551E+00  0.1230E+02
  -6.680  0.6653E+00  0.1231E+02
  -6.670  0.6756E+00  0.1232E+02
  -6.660  0.6859E+00  0.1232E+02
  -6.650  0.6963E+00  0.1233E+02
  -6.640  0.7067E+00  0.1234E+02
  -6.630  0.7171E+00  0.1235E+02
  -6.620  0.7276E+00  0.1235E+02
  -6.610  0.7381E+00  0.1236E+02
  -6.600  0.7487E+00  0.1237E+02
  -6.590  0.7593E+00  0.1238E+02
  -6.580  0.7699E+00  0.1238E+02
  -6.570  0.7805E+00  0.1239E+02
  -6.560  0.7912E+00  0.1240E+02
  -6.550  0.8018E+00  0.1241E+02
  -6.540  0.8125E+00  0.1241E+02
  -6.530  0.8233E+00  0.1242E+02
  -6.520  0.8340E+00  0.1243E+02
  -6.510  0.8447E+00  0.1244E+02
  -6.500  0.8554E+00  0.1245E+02
  -6.490  0.8662E+00  0.1246E+02
  -6.480  0.8769E+00  0.1247E+02
  -6.470  0.8876E+00  0.1247E+02
  -6.460  0.8984E+00  0.1248E+02
  -6.450  0.9091E+00  0.1249E+02
  -6.440  0.9198E+00  0.1250E+02
  -6.430  0.9305E+00  0.1251E+02
  -6.420  0.9411E+00  0.1252E+02
  -6.410  0.9518E+00  0.1253E+02
  -6.400  0.9624E+00  0.1254E+02
  -6.390  0.9730E+00  0.1255E+02
  -6.380  0.9836E+00  0.1256E+02
  -6.370  0.9941E+00  0.1257E+02
  -6.360  0.1005E+01  0.1258E+02
  -6.350  0.1015E+01  0.1259E+02
  -6.340  0.1026E+01  0.1260E+02
  -6.330  0.1036E+01  0.1261E+02
  -6.320  0.1046E+01  0.1262E+02
  -6.310  0.1056E+01  0.1263E+02
  -6.300  0.1067E+01  0.1264E+02
  -6.290  0.1077E+01  0.1265E+02
  -6.280  0.1087E+01  0.1266E+02
  -6.270  0.1097E+01  0.1267E+02
  -6.260  0.1107E+01  0.1269E+02
  -6.250  0.1117E+01  0.1270E+02
  -6.240  0.1127E+01  0.1271E+02
  -6.230  0.1137E+01  0.1272E+02
  -6.220  0.1146E+01  0.1273E+02
  -6.210  0.1156E+01  0.1274E+02
  -6.200  0.1166E+01  0.1275E+02
  -6.190  0.1175E+01  0.1277E+02
  -6.180  0.1184E+01  0.1278E+02
  -6.170  0.1194E+01  0.1279E+02
  -6.160  0.1203E+01  0.1280E+02
  -6.150  0.1212E+01  0.1281E+02
  -6.140  0.1221E+01  0.1283E+02
  -6.130  0.1230E+01  0.1284E+02
  -6.120  0.1239E+01  0.1285E+02
  -6.110  0.1248E+01  0.1286E+02
  -6.100  0.1256E+01  0.1288E+02
  -6.090  0.1265E+01  0.1289E+02
  -6.080  0.1273E+01  0.1290E+02
  -6.070  0.1282E+01  0.1291E+02
  -6.060  0.1290E+01  0.1293E+02
  -6.050  0.1298E+01  0.1294E+02
  -6.040  0.1306E+01  0.1295E+02
  -6.030  0.1314E+01  0.1297E+02
  -6.020  0.1322E+01  0.1298E+02
  -6.010  0.1330E+01  0.1299E+02
  -6.000  0.1337E+01  0.1301E+02
  -5.990  0.1345E+01  0.1302E+02
  -5.980  0.1352E+01  0.1303E+02
  -5.970  0.1360E+01  0.1305E+02
  -5.960  0.1367E+01  0.1306E+02
  -5.950  0.1374E+01  0.1307E+02
  -5.940  0.1381E+01  0.1309E+02
  -5.930  0.1388E+01  0.1310E+02
  -5.920  0.1394E+01  0.1312E+02
  -5.910  0.1401E+01  0.1313E+02
  -5.900  0.1407E+01  0.1314E+02
  -5.890  0.1414E+01  0.1316E+02
  -5.880  0.1420E+01  0.1317E+02
  -5.870  0.1426E+01  0.1319E+02
  -5.860  0.1432E+01  0.1320E+02
  -5.850  0.1438E+01  0.1321E+02
  -5.840  0.1444E+01  0.1323E+02
  -5.830  0.1450E+01  0.1324E+02
  -5.820  0.1455E+01  0.1326E+02
  -5.810  0.1461E+01  0.1327E+02
  -5.800  0.1466E+01  0.1329E+02
  -5.790  0.1471E+01  0.1330E+02
  -5.780  0.1477E+01  0.1332E+02
  -5.770  0.1482E+01  0.1333E+02
  -5.760  0.1487E+01  0.1335E+02
  -5.750  0.1491E+01  0.1336E+02
  -5.740  0.1496E+01  0.1338E+02
  -5.730  0.1501E+01  0.1339E+02
  -5.720  0.1505E+01  0.1341E+02
  -5.710  0.1510E+01  0.1342E+02
  -5.700  0.1514E+01  0.1344E+02
  -5.690  0.1518E+01  0.1345E+02
  -5.680  0.1522E+01  0.1347E+02
  -5.670  0.1527E+01  0.1348E+02
  -5.660  0.1530E+01  0.1350E+02
  -5.650  0.1534E+01  0.1351E+02
  -5.640  0.1538E+01  0.1353E+02
  -5.630  0.1542E+01  0.1354E+02
  -5.620  0.1545E+01  0.1356E+02
  -5.610  0.1549E+01  0.1357E+02
  -5.600  0.1552E+01  0.1359E+02
  -5.590  0.1556E+01  0.1361E+02
  -5.580  0.1559E+01  0.1362E+02
  -5.570  0.1562E+01  0.1364E+02
  -5.560  0.1565E+01  0.1365E+02
  -5.550  0.1568E+01  0.1367E+02
  -5.540  0.1571E+01  0.1368E+02
  -5.530  0.1574E+01  0.1370E+02
  -5.520  0.1577E+01  0.1372E+02
  -5.510  0.1580E+01  0.1373E+02
  -5.500  0.1583E+01  0.1375E+02
  -5.490  0.1585E+01  0.1376E+02
  -5.480  0.1588E+01  0.1378E+02
  -5.470  0.1590E+01  0.1379E+02
  -5.460  0.1593E+01  0.1381E+02
  -5.450  0.1595E+01  0.1383E+02
  -5.440  0.1598E+01  0.1384E+02
  -5.430  0.1600E+01  0.1386E+02
  -5.420  0.1602E+01  0.1387E+02
  -5.410  0.1604E+01  0.1389E+02
  -5.400  0.1607E+01  0.1391E+02
  -5.390  0.1609E+01  0.1392E+02
  -5.380  0.1611E+01  0.1394E+02
  -5.370  0.1613E+01  0.1396E+02
  -5.360  0.1615E+01  0.1397E+02
  -5.350  0.1617E+01  0.1399E+02
  -5.340  0.1619E+01  0.1400E+02
  -5.330  0.1621E+01  0.1402E+02
  -5.320  0.1623E+01  0.1404E+02
  -5.310  0.1625E+01  0.1405E+02
  -5.300  0.1627E+01  0.1407E+02
  -5.290  0.1628E+01  0.1408E+02
  -5.280  0.1630E+01  0.1410E+02
  -5.270  0.1632E+01  0.1412E+02
  -5.260  0.1634E+01  0.1413E+02
  -5.250  0.1636E+01  0.1415E+02
  -5.240  0.1637E+01  0.1417E+02
  -5.230  0.1639E+01  0.1418E+02
  -5.220  0.1641E+01  0.1420E+02
  -5.210  0.1643E+01  0.1422E+02
  -5.200  0.1644E+01  0.1423E+02
  -5.190  0.1646E+01  0.1425E+02
  -5.180  0.1648E+01  0.1427E+02
  -5.170  0.1650E+01  0.1428E+02
  -5.160  0.1651E+01  0.1430E+02
  -5.150  0.1653E+01  0.1431E+02
  -5.140  0.1655E+01  0.1433E+02
  -5.130  0.1656E+01  0.1435E+02
  -5.120  0.1658E+01  0.1436E+02
  -5.110  0.1660E+01  0.1438E+02
  -5.100  0.1662E+01  0.1440E+02
  -5.090  0.1663E+01  0.1441E+02
  -5.080  0.1665E+01  0.1443E+02
  -5.070  0.1667E+01  0.1445E+02
  -5.060  0.1669E+01  0.1446E+02
  -5.050  0.1670E+01  0.1448E+02
  -5.040  0.1672E+01  0.1450E+02
  -5.030  0.1674E+01  0.1451E+02
  -5.020  0.1676E+01  0.1453E+02
  -5.010  0.1678E+01  0.1455E+02
  -5.000  0.1679E+01  0.1456E+02
  -4.990  0.1681E+01  0.1458E+02
  -4.980  0.1683E+01  0.1460E+02
  -4.970  0.1685E+01  0.1462E+02
  -4.960  0.1687E+01  0.1463E+02
  -4.950  0.1689E+01  0.1465E+02
  -4.940  0.1691E+01  0.1467E+02
  -4.930  0.1693E+01  0.1468E+02
  -4.920  0.1695E+01  0.1470E+02
  -4.910  0.1697E+01  0.1472E+02
  -4.900  0.1699E+01  0.1473E+02
  -4.890  0.1702E+01  0.1475E+02
  -4.880  0.1704E+01  0.1477E+02
  -4.870  0.1706E+01  0.1478E+02
  -4.860  0.1708E+01  0.1480E+02
  -4.850  0.1710E+01  0.1482E+02
  -4.840  0.1713E+01  0.1484E+02
  -4.830  0.1715E+01  0.1485E+02
  -4.820  0.1717E+01  0.1487E+02
  -4.810  0.1720E+01  0.1489E+02
  -4.800  0.1722E+01  0.1490E+02
  -4.790  0.1725E+01  0.1492E+02
  -4.780  0.1727E+01  0.1494E+02
  -4.770  0.1730E+01  0.1496E+02
  -4.760  0.1733E+01  0.1497E+02
  -4.750  0.1735E+01  0.1499E+02
  -4.740  0.1738E+01  0.1501E+02
  -4.730  0.1741E+01  0.1503E+02
  -4.720  0.1744E+01  0.1504E+02
  -4.710  0.1747E+01  0.1506E+02
  -4.700  0.1750E+01  0.1508E+02
  -4.690  0.1753E+01  0.1510E+02
  -4.680  0.1756E+01  0.1511E+02
  -4.670  0.1759E+01  0.1513E+02
  -4.660  0.1762E+01  0.1515E+02
  -4.650  0.1765E+01  0.1517E+02
  -4.640  0.1768E+01  0.1518E+02
  -4.630  0.1772E+01  0.1520E+02
  -4.620  0.1775E+01  0.1522E+02
  -4.610  0.1779E+01  0.1524E+02
  -4.600  0.1782E+01  0.1526E+02
  -4.590  0.1786E+01  0.1527E+02
  -4.580  0.1790E+01  0.1529E+02
  -4.570  0.1793E+01  0.1531E+02
  -4.560  0.1797E+01  0.1533E+02
  -4.550  0.1801E+01  0.1534E+02
  -4.540  0.1805E+01  0.1536E+02
  -4.530  0.1809E+01  0.1538E+02
  -4.520  0.1813E+01  0.1540E+02
  -4.510  0.1818E+01  0.1542E+02
  -4.500  0.1822E+01  0.1544E+02
  -4.490  0.1826E+01  0.1545E+02
  -4.480  0.1831E+01  0.1547E+02
  -4.470  0.1836E+01  0.1549E+02
  -4.460  0.1840E+01  0.1551E+02
  -4.450  0.1845E+01  0.1553E+02
  -4.440  0.1850E+01  0.1555E+02
  -4.430  0.1855E+01  0.1556E+02
  -4.420  0.1860E+01  0.1558E+02
  -4.410  0.1865E+01  0.1560E+02
  -4.400  0.1871E+01  0.1562E+02
  -4.390  0.1876E+01  0.1564E+02
  -4.380  0.1882E+01  0.1566E+02
  -4.370  0.1887E+01  0.1568E+02
  -4.360  0.1893E+01  0.1570E+02
  -4.350  0.1899E+01  0.1571E+02
  -4.340  0.1905E+01  0.1573E+02
  -4.330  0.1911E+01  0.1575E+02
  -4.320  0.1918E+01  0.1577E+02
  -4.310  0.1924E+01  0.1579E+02
  -4.300  0.1931E+01  0.1581E+02
  -4.290  0.1937E+01  0.1583E+02
  -4.280  0.1944E+01  0.1585E+02
  -4.270  0.1951E+01  0.1587E+02
  -4.260  0.1958E+01  0.1589E+02
  -4.250  0.1965E+01  0.1591E+02
  -4.240  0.1973E+01  0.1593E+02
  -4.230  0.1980E+01  0.1595E+02
  -4.220  0.1988E+01  0.1597E+02
  -4.210  0.1996E+01  0.1599E+02
  -4.200  0.2004E+01  0.1601E+02
  -4.190  0.2012E+01  0.1603E+02
  -4.180  0.2020E+01  0.1605E+02
  -4.170  0.2029E+01  0.1607E+02
  -4.160  0.2037E+01  0.1609E+02
  -4.150  0.2046E+01  0.1611E+02
  -4.140  0.2055E+01  0.1613E+02
  -4.130  0.2064E+01  0.1615E+02
  -4.120  0.2074E+01  0.1617E+02
  -4.110  0.2083E+01  0.1619E+02
  -4.100  0.2093E+01  0.1621E+02
  -4.090  0.2102E+01  0.1623E+02
  -4.080  0.2112E+01  0.1625E+02
  -4.070  0.2123E+01  0.1628E+02
  -4.060  0.2133E+01  0.1630E+02
  -4.050  0.2143E+01  0.1632E+02
  -4.040  0.2154E+01  0.1634E+02
  -4.030  0.2165E+01  0.1636E+02
  -4.020  0.2176E+01  0.1638E+02
  -4.010  0.2187E+01  0.1641E+02
  -4.000  0.2199E+01  0.1643E+02
  -3.990  0.2210E+01  0.1645E+02
  -3.980  0.2222E+01  0.1647E+02
  -3.970  0.2234E+01  0.1649E+02
  -3.960  0.2246E+01  0.1652E+02
  -3.950  0.2259E+01  0.1654E+02
  -3.940  0.2271E+01  0.1656E+02
  -3.930  0.2284E+01  0.1659E+02
  -3.920  0.2297E+01  0.1661E+02
  -3.910  0.2310E+01  0.1663E+02
  -3.900  0.2323E+01  0.1665E+02
  -3.890  0.2337E+01  0.1668E+02
  -3.880  0.2351E+01  0.1670E+02
  -3.870  0.2364E+01  0.1672E+02
  -3.860  0.2378E+01  0.1675E+02
  -3.850  0.2393E+01  0.1677E+02
  -3.840  0.2407E+01  0.1680E+02
  -3.830  0.2422E+01  0.1682E+02
  -3.820  0.2436E+01  0.1685E+02
  -3.810  0.2451E+01  0.1687E+02
  -3.800  0.2467E+01  0.1689E+02
  -3.790  0.2482E+01  0.1692E+02
  -3.780  0.2497E+01  0.1694E+02
  -3.770  0.2513E+01  0.1697E+02
  -3.760  0.2529E+01  0.1699E+02
  -3.750  0.2545E+01  0.1702E+02
  -3.740  0.2561E+01  0.1705E+02
  -3.730  0.2577E+01  0.1707E+02
  -3.720  0.2593E+01  0.1710E+02
  -3.710  0.2610E+01  0.1712E+02
  -3.700  0.2627E+01  0.1715E+02
  -3.690  0.2644E+01  0.1718E+02
  -3.680  0.2661E+01  0.1720E+02
  -3.670  0.2678E+01  0.1723E+02
  -3.660  0.2695E+01  0.1726E+02
  -3.650  0.2712E+01  0.1728E+02
  -3.640  0.2730E+01  0.1731E+02
  -3.630  0.2748E+01  0.1734E+02
  -3.620  0.2765E+01  0.1737E+02
  -3.610  0.2783E+01  0.1739E+02
  -3.600  0.2801E+01  0.1742E+02
  -3.590  0.2819E+01  0.1745E+02
  -3.580  0.2837E+01  0.1748E+02
  -3.570  0.2856E+01  0.1751E+02
  -3.560  0.2874E+01  0.1754E+02
  -3.550  0.2892E+01  0.1756E+02
  -3.540  0.2911E+01  0.1759E+02
  -3.530  0.2929E+01  0.1762E+02
  -3.520  0.2948E+01  0.1765E+02
  -3.510  0.2967E+01  0.1768E+02
  -3.500  0.2985E+01  0.1771E+02
  -3.490  0.3004E+01  0.1774E+02
  -3.480  0.3023E+01  0.1777E+02
  -3.470  0.3042E+01  0.1780E+02
  -3.460  0.3060E+01  0.1783E+02
  -3.450  0.3079E+01  0.1786E+02
  -3.440  0.3098E+01  0.1790E+02
  -3.430  0.3117E+01  0.1793E+02
  -3.420  0.3135E+01  0.1796E+02
  -3.410  0.3154E+01  0.1799E+02
  -3.400  0.3173E+01  0.1802E+02
  -3.390  0.3191E+01  0.1805E+02
  -3.380  0.3210E+01  0.1808E+02
  -3.370  0.3228E+01  0.1812E+02
  -3.360  0.3247E+01  0.1815E+02
  -3.350  0.3265E+01  0.1818E+02
  -3.340  0.3284E+01  0.1822E+02
  -3.330  0.3302E+01  0.1825E+02
  -3.320  0.3320E+01  0.1828E+02
  -3.310  0.3338E+01  0.1831E+02
  -3.300  0.3356E+01  0.1835E+02
  -3.290  0.3373E+01  0.1838E+02
  -3.280  0.3391E+01  0.1842E+02
  -3.270  0.3408E+01  0.1845E+02
  -3.260  0.3425E+01  0.1848E+02
  -3.250  0.3443E+01  0.1852E+02
  -3.240  0.3459E+01  0.1855E+02
  -3.230  0.3476E+01  0.1859E+02
  -3.220  0.3493E+01  0.1862E+02
  -3.210  0.3509E+01  0.1866E+02
  -3.200  0.3525E+01  0.1869E+02
  -3.190  0.3541E+01  0.1873E+02
  -3.180  0.3556E+01  0.1876E+02
  -3.170  0.3572E+01  0.1880E+02
  -3.160  0.3587E+01  0.1884E+02
  -3.150  0.3602E+01  0.1887E+02
  -3.140  0.3616E+01  0.1891E+02
  -3.130  0.3630E+01  0.1894E+02
  -3.120  0.3644E+01  0.1898E+02
  -3.110  0.3658E+01  0.1902E+02
  -3.100  0.3671E+01  0.1905E+02
  -3.090  0.3684E+01  0.1909E+02
  -3.080  0.3697E+01  0.1913E+02
  -3.070  0.3709E+01  0.1917E+02
  -3.060  0.3721E+01  0.1920E+02
  -3.050  0.3733E+01  0.1924E+02
  -3.040  0.3744E+01  0.1928E+02
  -3.030  0.3755E+01  0.1931E+02
  -3.020  0.3765E+01  0.1935E+02
  -3.010  0.3776E+01  0.1939E+02
  -3.000  0.3785E+01  0.1943E+02
  -2.990  0.3795E+01  0.1947E+02
  -2.980  0.3803E+01  0.1950E+02
  -2.970  0.3812E+01  0.1954E+02
  -2.960  0.3820E+01  0.1958E+02
  -2.950  0.3827E+01  0.1962E+02
  -2.940  0.3835E+01  0.1966E+02
  -2.930  0.3841E+01  0.1970E+02
  -2.920  0.3847E+01  0.1973E+02
  -2.910  0.3853E+01  0.1977E+02
  -2.900  0.3858E+01  0.1981E+02
  -2.890  0.3863E+01  0.1985E+02
  -2.880  0.3868E+01  0.1989E+02
  -2.870  0.3871E+01  0.1993E+02
  -2.860  0.3875E+01  0.1997E+02
  -2.850  0.3878E+01  0.2000E+02
  -2.840  0.3880E+01  0.2004E+02
  -2.830  0.3882E+01  0.2008E+02
  -2.820  0.3883E+01  0.2012E+02
  -2.810  0.3884E+01  0.2016E+02
  -2.800  0.3884E+01  0.2020E+02
  -2.790  0.3884E+01  0.2024E+02
  -2.780  0.3883E+01  0.2028E+02
  -2.770  0.3882E+01  0.2031E+02
  -2.760  0.3880E+01  0.2035E+02
  -2.750  0.3878E+01  0.2039E+02
  -2.740  0.3875E+01  0.2043E+02
  -2.730  0.3872E+01  0.2047E+02
  -2.720  0.3868E+01  0.2051E+02
  -2.710  0.3863E+01  0.2055E+02
  -2.700  0.3858E+01  0.2059E+02
  -2.690  0.3853E+01  0.2062E+02
  -2.680  0.3847E+01  0.2066E+02
  -2.670  0.3840E+01  0.2070E+02
  -2.660  0.3833E+01  0.2074E+02
  -2.650  0.3825E+01  0.2078E+02
  -2.640  0.3817E+01  0.2082E+02
  -2.630  0.3808E+01  0.2085E+02
  -2.620  0.3799E+01  0.2089E+02
  -2.610  0.3790E+01  0.2093E+02
  -2.600  0.3779E+01  0.2097E+02
  -2.590  0.3769E+01  0.2101E+02
  -2.580  0.3757E+01  0.2104E+02
  -2.570  0.3746E+01  0.2108E+02
  -2.560  0.3733E+01  0.2112E+02
  -2.550  0.3721E+01  0.2115E+02
  -2.540  0.3707E+01  0.2119E+02
  -2.530  0.3694E+01  0.2123E+02
  -2.520  0.3680E+01  0.2127E+02
  -2.510  0.3665E+01  0.2130E+02
  -2.500  0.3650E+01  0.2134E+02
  -2.490  0.3634E+01  0.2138E+02
  -2.480  0.3618E+01  0.2141E+02
  -2.470  0.3602E+01  0.2145E+02
  -2.460  0.3585E+01  0.2148E+02
  -2.450  0.3568E+01  0.2152E+02
  -2.440  0.3550E+01  0.2155E+02
  -2.430  0.3532E+01  0.2159E+02
  -2.420  0.3513E+01  0.2162E+02
  -2.410  0.3494E+01  0.2166E+02
  -2.400  0.3475E+01  0.2169E+02
  -2.390  0.3455E+01  0.2173E+02
  -2.380  0.3435E+01  0.2176E+02
  -2.370  0.3415E+01  0.2180E+02
  -2.360  0.3394E+01  0.2183E+02
  -2.350  0.3373E+01  0.2187E+02
  -2.340  0.3352E+01  0.2190E+02
  -2.330  0.3330E+01  0.2193E+02
  -2.320  0.3308E+01  0.2197E+02
  -2.310  0.3286E+01  0.2200E+02
  -2.300  0.3264E+01  0.2203E+02
  -2.290  0.3241E+01  0.2206E+02
  -2.280  0.3218E+01  0.2210E+02
  -2.270  0.3195E+01  0.2213E+02
  -2.260  0.3171E+01  0.2216E+02
  -2.250  0.3148E+01  0.2219E+02
  -2.240  0.3124E+01  0.2222E+02
  -2.230  0.3100E+01  0.2225E+02
  -2.220  0.3076E+01  0.2228E+02
  -2.210  0.3052E+01  0.2231E+02
  -2.200  0.3027E+01  0.2234E+02
  -2.190  0.3003E+01  0.2237E+02
  -2.180  0.2978E+01  0.2240E+02
  -2.170  0.2953E+01  0.2243E+02
  -2.160  0.2928E+01  0.2246E+02
  -2.150  0.2903E+01  0.2249E+02
  -2.140  0.2879E+01  0.2252E+02
  -2.130  0.2854E+01  0.2255E+02
  -2.120  0.2829E+01  0.2258E+02
  -2.110  0.2804E+01  0.2261E+02
  -2.100  0.2779E+01  0.2263E+02
  -2.090  0.2754E+01  0.2266E+02
  -2.080  0.2729E+01  0.2269E+02
  -2.070  0.2704E+01  0.2272E+02
  -2.060  0.2679E+01  0.2274E+02
  -2.050  0.2654E+01  0.2277E+02
  -2.040  0.2629E+01  0.2279E+02
  -2.030  0.2605E+01  0.2282E+02
  -2.020  0.2580E+01  0.2285E+02
  -2.010  0.2556E+01  0.2287E+02
  -2.000  0.2532E+01  0.2290E+02
  -1.990  0.2508E+01  0.2292E+02
  -1.980  0.2484E+01  0.2295E+02
  -1.970  0.2461E+01  0.2297E+02
  -1.960  0.2437E+01  0.2300E+02
  -1.950  0.2414E+01  0.2302E+02
  -1.940  0.2391E+01  0.2304E+02
  -1.930  0.2369E+01  0.2307E+02
  -1.920  0.2346E+01  0.2309E+02
  -1.910  0.2324E+01  0.2311E+02
  -1.900  0.2302E+01  0.2314E+02
  -1.890  0.2281E+01  0.2316E+02
  -1.880  0.2259E+01  0.2318E+02
  -1.870  0.2239E+01  0.2321E+02
  -1.860  0.2218E+01  0.2323E+02
  -1.850  0.2198E+01  0.2325E+02
  -1.840  0.2178E+01  0.2327E+02
  -1.830  0.2159E+01  0.2329E+02
  -1.820  0.2140E+01  0.2331E+02
  -1.810  0.2121E+01  0.2334E+02
  -1.800  0.2103E+01  0.2336E+02
  -1.790  0.2085E+01  0.2338E+02
  -1.780  0.2068E+01  0.2340E+02
  -1.770  0.2051E+01  0.2342E+02
  -1.760  0.2035E+01  0.2344E+02
  -1.750  0.2019E+01  0.2346E+02
  -1.740  0.2003E+01  0.2348E+02
  -1.730  0.1988E+01  0.2350E+02
  -1.720  0.1974E+01  0.2352E+02
  -1.710  0.1960E+01  0.2354E+02
  -1.700  0.1946E+01  0.2356E+02
  -1.690  0.1934E+01  0.2358E+02
  -1.680  0.1921E+01  0.2360E+02
  -1.670  0.1909E+01  0.2362E+02
  -1.660  0.1898E+01  0.2363E+02
  -1.650  0.1888E+01  0.2365E+02
  -1.640  0.1878E+01  0.2367E+02
  -1.630  0.1868E+01  0.2369E+02
  -1.620  0.1859E+01  0.2371E+02
  -1.610  0.1851E+01  0.2373E+02
  -1.600  0.1843E+01  0.2375E+02
  -1.590  0.1836E+01  0.2377E+02
  -1.580  0.1830E+01  0.2378E+02
  -1.570  0.1824E+01  0.2380E+02
  -1.560  0.1818E+01  0.2382E+02
  -1.550  0.1814E+01  0.2384E+02
  -1.540  0.1810E+01  0.2386E+02
  -1.530  0.1807E+01  0.2387E+02
  -1.520  0.1804E+01  0.2389E+02
  -1.510  0.1802E+01  0.2391E+02
  -1.500  0.1800E+01  0.2393E+02
  -1.490  0.1800E+01  0.2395E+02
  -1.480  0.1800E+01  0.2396E+02
  -1.470  0.1800E+01  0.2398E+02
  -1.460  0.1802E+01  0.2400E+02
  -1.450  0.1804E+01  0.2402E+02
  -1.440  0.1806E+01  0.2404E+02
  -1.430  0.1809E+01  0.2405E+02
  -1.420  0.1813E+01  0.2407E+02
  -1.410  0.1818E+01  0.2409E+02
  -1.400  0.1823E+01  0.2411E+02
  -1.390  0.1829E+01  0.2413E+02
  -1.380  0.1836E+01  0.2415E+02
  -1.370  0.1843E+01  0.2416E+02
  -1.360  0.1851E+01  0.2418E+02
  -1.350  0.1860E+01  0.2420E+02
  -1.340  0.1869E+01  0.2422E+02
  -1.330  0.1879E+01  0.2424E+02
  -1.320  0.1890E+01  0.2426E+02
  -1.310  0.1901E+01  0.2428E+02
  -1.300  0.1913E+01  0.2430E+02
  -1.290  0.1925E+01  0.2431E+02
  -1.280  0.1939E+01  0.2433E+02
  -1.270  0.1953E+01  0.2435E+02
  -1.260  0.1967E+01  0.2437E+02
  -1.250  0.1982E+01  0.2439E+02
  -1.240  0.1998E+01  0.2441E+02
  -1.230  0.2015E+01  0.2443E+02
  -1.220  0.2032E+01  0.2445E+02
  -1.210  0.2049E+01  0.2447E+02
  -1.200  0.2068E+01  0.2449E+02
  -1.190  0.2087E+01  0.2452E+02
  -1.180  0.2106E+01  0.2454E+02
  -1.170  0.2126E+01  0.2456E+02
  -1.160  0.2147E+01  0.2458E+02
  -1.150  0.2168E+01  0.2460E+02
  -1.140  0.2190E+01  0.2462E+02
  -1.130  0.2213E+01  0.2465E+02
  -1.120  0.2236E+01  0.2467E+02
  -1.110  0.2259E+01  0.2469E+02
  -1.100  0.2283E+01  0.2471E+02
  -1.090  0.2308E+01  0.2474E+02
  -1.080  0.2333E+01  0.2476E+02
  -1.070  0.2359E+01  0.2478E+02
  -1.060  0.2385E+01  0.2481E+02
  -1.050  0.2412E+01  0.2483E+02
  -1.040  0.2439E+01  0.2486E+02
  -1.030  0.2467E+01  0.2488E+02
  -1.020  0.2495E+01  0.2491E+02
  -1.010  0.2524E+01  0.2493E+02
  -1.000  0.2553E+01  0.2496E+02
  -0.990  0.2582E+01  0.2498E+02
  -0.980  0.2612E+01  0.2501E+02
  -0.970  0.2643E+01  0.2503E+02
  -0.960  0.2673E+01  0.2506E+02
  -0.950  0.2705E+01  0.2509E+02
  -0.940  0.2736E+01  0.2512E+02
  -0.930  0.2768E+01  0.2514E+02
  -0.920  0.2801E+01  0.2517E+02
  -0.910  0.2833E+01  0.2520E+02
  -0.900  0.2866E+01  0.2523E+02
  -0.890  0.2900E+01  0.2526E+02
  -0.880  0.2933E+01  0.2529E+02
  -0.870  0.2968E+01  0.2532E+02
  -0.860  0.3002E+01  0.2535E+02
  -0.850  0.3037E+01  0.2538E+02
  -0.840  0.3071E+01  0.2541E+02
  -0.830  0.3107E+01  0.2544E+02
  -0.820  0.3142E+01  0.2547E+02
  -0.810  0.3178E+01  0.2550E+02
  -0.800  0.3214E+01  0.2553E+02
  -0.790  0.3250E+01  0.2557E+02
  -0.780  0.3286E+01  0.2560E+02
  -0.770  0.3323E+01  0.2563E+02
  -0.760  0.3359E+01  0.2567E+02
  -0.750  0.3396E+01  0.2570E+02
  -0.740  0.3433E+01  0.2573E+02
  -0.730  0.3471E+01  0.2577E+02
  -0.720  0.3508E+01  0.2580E+02
  -0.710  0.3545E+01  0.2584E+02
  -0.700  0.3583E+01  0.2588E+02
  -0.690  0.3621E+01  0.2591E+02
  -0.680  0.3659E+01  0.2595E+02
  -0.670  0.3696E+01  0.2598E+02
  -0.660  0.3734E+01  0.2602E+02
  -0.650  0.3772E+01  0.2606E+02
  -0.640  0.3810E+01  0.2610E+02
  -0.630  0.3849E+01  0.2614E+02
  -0.620  0.3887E+01  0.2618E+02
  -0.610  0.3925E+01  0.2621E+02
  -0.600  0.3963E+01  0.2625E+02
  -0.590  0.4001E+01  0.2629E+02
  -0.580  0.4039E+01  0.2633E+02
  -0.570  0.4077E+01  0.2638E+02
  -0.560  0.4115E+01  0.2642E+02
  -0.550  0.4154E+01  0.2646E+02
  -0.540  0.4191E+01  0.2650E+02
  -0.530  0.4229E+01  0.2654E+02
  -0.520  0.4267E+01  0.2658E+02
  -0.510  0.4305E+01  0.2663E+02
  -0.500  0.4343E+01  0.2667E+02
  -0.490  0.4380E+01  0.2672E+02
  -0.480  0.4418E+01  0.2676E+02
  -0.470  0.4455E+01  0.2680E+02
  -0.460  0.4492E+01  0.2685E+02
  -0.450  0.4529E+01  0.2689E+02
  -0.440  0.4566E+01  0.2694E+02
  -0.430  0.4603E+01  0.2699E+02
  -0.420  0.4640E+01  0.2703E+02
  -0.410  0.4676E+01  0.2708E+02
  -0.400  0.4712E+01  0.2713E+02
  -0.390  0.4748E+01  0.2717E+02
  -0.380  0.4784E+01  0.2722E+02
  -0.370  0.4820E+01  0.2727E+02
  -0.360  0.4856E+01  0.2732E+02
  -0.350  0.4891E+01  0.2737E+02
  -0.340  0.4926E+01  0.2742E+02
  -0.330  0.4961E+01  0.2747E+02
  -0.320  0.4996E+01  0.2752E+02
  -0.310  0.5030E+01  0.2757E+02
  -0.300  0.5064E+01  0.2762E+02
  -0.290  0.5098E+01  0.2767E+02
  -0.280  0.5132E+01  0.2772E+02
  -0.270  0.5165E+01  0.2777E+02
  -0.260  0.5199E+01  0.2782E+02
  -0.250  0.5232E+01  0.2788E+02
  -0.240  0.5264E+01  0.2793E+02
  -0.230  0.5297E+01  0.2798E+02
  -0.220  0.5329E+01  0.2803E+02
  -0.210  0.5361E+01  0.2809E+02
  -0.200  0.5393E+01  0.2814E+02
  -0.190  0.5424E+01  0.2820E+02
  -0.180  0.5455E+01  0.2825E+02
  -0.170  0.5486E+01  0.2831E+02
  -0.160  0.5516E+01  0.2836E+02
  -0.150  0.5547E+01  0.2842E+02
  -0.140  0.5577E+01  0.2847E+02
  -0.130  0.5606E+01  0.2853E+02
  -0.120  0.5636E+01  0.2858E+02
  -0.110  0.5665E+01  0.2864E+02
  -0.100  0.5694E+01  0.2870E+02
  -0.090  0.5722E+01  0.2875E+02
  -0.080  0.5750E+01  0.2881E+02
  -0.070  0.5778E+01  0.2887E+02
  -0.060  0.5806E+01  0.2893E+02
  -0.050  0.5833E+01  0.2899E+02
  -0.040  0.5860E+01  0.2905E+02
  -0.030  0.5887E+01  0.2910E+02
  -0.020  0.5913E+01  0.2916E+02
  -0.010  0.5940E+01  0.2922E+02
   0.000  0.5965E+01  0.2928E+02
   0.010  0.5991E+01  0.2934E+02
   0.020  0.6016E+01  0.2940E+02
   0.030  0.6041E+01  0.2946E+02
   0.040  0.6066E+01  0.2952E+02
   0.050  0.6091E+01  0.2958E+02
   0.060  0.6115E+01  0.2965E+02
   0.070  0.6139E+01  0.2971E+02
   0.080  0.6162E+01  0.2977E+02
   0.090  0.6185E+01  0.2983E+02
   0.100  0.6208E+01  0.2989E+02
   0.110  0.6231E+01  0.2995E+02
   0.120  0.6254E+01  0.3002E+02
   0.130  0.6276E+01  0.3008E+02
   0.140  0.6298E+01  0.3014E+02
   0.150  0.6319E+01  0.3021E+02
   0.160  0.6341E+01  0.3027E+02
   0.170  0.6362E+01  0.3033E+02
   0.180  0.6383E+01  0.3040E+02
   0.190  0.6403E+01  0.3046E+02
   0.200  0.6424E+01  0.3053E+02
   0.210  0.6444E+01  0.3059E+02
   0.220  0.6464E+01  0.3065E+02
   0.230  0.6483E+01  0.3072E+02
   0.240  0.6503E+01  0.3078E+02
   0.250  0.6522E+01  0.3085E+02
   0.260  0.6540E+01  0.3091E+02
   0.270  0.6559E+01  0.3098E+02
   0.280  0.6577E+01  0.3105E+02
   0.290  0.6596E+01  0.3111E+02
   0.300  0.6613E+01  0.3118E+02
   0.310  0.6631E+01  0.3124E+02
   0.320  0.6649E+01  0.3131E+02
   0.330  0.6666E+01  0.3138E+02
   0.340  0.6683E+01  0.3144E+02
   0.350  0.6699E+01  0.3151E+02
   0.360  0.6716E+01  0.3158E+02
   0.370  0.6732E+01  0.3165E+02
   0.380  0.6748E+01  0.3171E+02
   0.390  0.6764E+01  0.3178E+02
   0.400  0.6780E+01  0.3185E+02
   0.410  0.6795E+01  0.3192E+02
   0.420  0.6811E+01  0.3199E+02
   0.430  0.6826E+01  0.3205E+02
   0.440  0.6841E+01  0.3212E+02
   0.450  0.6855E+01  0.3219E+02
   0.460  0.6870E+01  0.3226E+02
   0.470  0.6884E+01  0.3233E+02
   0.480  0.6898E+01  0.3240E+02
   0.490  0.6912E+01  0.3247E+02
   0.500  0.6926E+01  0.3254E+02
   0.510  0.6939E+01  0.3260E+02
   0.520  0.6952E+01  0.3267E+02
   0.530  0.6965E+01  0.3274E+02
   0.540  0.6978E+01  0.3281E+02
   0.550  0.6991E+01  0.3288E+02
   0.560  0.7003E+01  0.3295E+02
   0.570  0.7016E+01  0.3302E+02
   0.580  0.7028E+01  0.3309E+02
   0.590  0.7040E+01  0.3316E+02
   0.600  0.7052E+01  0.3323E+02
   0.610  0.7063E+01  0.3331E+02
   0.620  0.7075E+01  0.3338E+02
   0.630  0.7086E+01  0.3345E+02
   0.640  0.7097E+01  0.3352E+02
   0.650  0.7108E+01  0.3359E+02
   0.660  0.7119E+01  0.3366E+02
   0.670  0.7129E+01  0.3373E+02
   0.680  0.7139E+01  0.3380E+02
   0.690  0.7149E+01  0.3387E+02
   0.700  0.7159E+01  0.3395E+02
   0.710  0.7169E+01  0.3402E+02
   0.720  0.7179E+01  0.3409E+02
   0.730  0.7188E+01  0.3416E+02
   0.740  0.7197E+01  0.3423E+02
   0.750  0.7206E+01  0.3431E+02
   0.760  0.7215E+01  0.3438E+02
   0.770  0.7224E+01  0.3445E+02
   0.780  0.7232E+01  0.3452E+02
   0.790  0.7240E+01  0.3459E+02
   0.800  0.7249E+01  0.3467E+02
   0.810  0.7256E+01  0.3474E+02
   0.820  0.7264E+01  0.3481E+02
   0.830  0.7271E+01  0.3488E+02
   0.840  0.7279E+01  0.3496E+02
   0.850  0.7286E+01  0.3503E+02
   0.860  0.7293E+01  0.3510E+02
   0.870  0.7299E+01  0.3518E+02
   0.880  0.7306E+01  0.3525E+02
   0.890  0.7312E+01  0.3532E+02
   0.900  0.7318E+01  0.3540E+02
   0.910  0.7324E+01  0.3547E+02
   0.920  0.7329E+01  0.3554E+02
   0.930  0.7335E+01  0.3562E+02
   0.940  0.7340E+01  0.3569E+02
   0.950  0.7345E+01  0.3576E+02
   0.960  0.7349E+01  0.3584E+02
   0.970  0.7354E+01  0.3591E+02
   0.980  0.7358E+01  0.3598E+02
   0.990  0.7362E+01  0.3606E+02
   1.000  0.7366E+01  0.3613E+02
   1.010  0.7369E+01  0.3620E+02
   1.020  0.7373E+01  0.3628E+02
   1.030  0.7376E+01  0.3635E+02
   1.040  0.7379E+01  0.3643E+02
   1.050  0.7381E+01  0.3650E+02
   1.060  0.7383E+01  0.3657E+02
   1.070  0.7385E+01  0.3665E+02
   1.080  0.7387E+01  0.3672E+02
   1.090  0.7389E+01  0.3679E+02
   1.100  0.7390E+01  0.3687E+02
   1.110  0.7391E+01  0.3694E+02
   1.120  0.7391E+01  0.3702E+02
   1.130  0.7392E+01  0.3709E+02
   1.140  0.7392E+01  0.3716E+02
   1.150  0.7392E+01  0.3724E+02
   1.160  0.7391E+01  0.3731E+02
   1.170  0.7391E+01  0.3739E+02
   1.180  0.7390E+01  0.3746E+02
   1.190  0.7388E+01  0.3753E+02
   1.200  0.7387E+01  0.3761E+02
   1.210  0.7385E+01  0.3768E+02
   1.220  0.7382E+01  0.3776E+02
   1.230  0.7380E+01  0.3783E+02
   1.240  0.7377E+01  0.3790E+02
   1.250  0.7374E+01  0.3798E+02
   1.260  0.7370E+01  0.3805E+02
   1.270  0.7366E+01  0.3812E+02
   1.280  0.7362E+01  0.3820E+02
   1.290  0.7358E+01  0.3827E+02
   1.300  0.7353E+01  0.3834E+02
   1.310  0.7348E+01  0.3842E+02
   1.320  0.7342E+01  0.3849E+02
   1.330  0.7337E+01  0.3857E+02
   1.340  0.7330E+01  0.3864E+02
   1.350  0.7324E+01  0.3871E+02
   1.360  0.7317E+01  0.3878E+02
   1.370  0.7310E+01  0.3886E+02
   1.380  0.7302E+01  0.3893E+02
   1.390  0.7294E+01  0.3900E+02
   1.400  0.7286E+01  0.3908E+02
   1.410  0.7277E+01  0.3915E+02
   1.420  0.7268E+01  0.3922E+02
   1.430  0.7259E+01  0.3929E+02
   1.440  0.7249E+01  0.3937E+02
   1.450  0.7239E+01  0.3944E+02
   1.460  0.7228E+01  0.3951E+02
   1.470  0.7218E+01  0.3958E+02
   1.480  0.7206E+01  0.3966E+02
   1.490  0.7195E+01  0.3973E+02
   1.500  0.7183E+01  0.3980E+02
   1.510  0.7170E+01  0.3987E+02
   1.520  0.7157E+01  0.3994E+02
   1.530  0.7144E+01  0.4001E+02
   1.540  0.7130E+01  0.4009E+02
   1.550  0.7116E+01  0.4016E+02
   1.560  0.7102E+01  0.4023E+02
   1.570  0.7087E+01  0.4030E+02
   1.580  0.7072E+01  0.4037E+02
   1.590  0.7056E+01  0.4044E+02
   1.600  0.7040E+01  0.4051E+02
   1.610  0.7024E+01  0.4058E+02
   1.620  0.7007E+01  0.4065E+02
   1.630  0.6990E+01  0.4072E+02
   1.640  0.6972E+01  0.4079E+02
   1.650  0.6954E+01  0.4086E+02
   1.660  0.6936E+01  0.4093E+02
   1.670  0.6917E+01  0.4100E+02
   1.680  0.6897E+01  0.4107E+02
   1.690  0.6878E+01  0.4114E+02
   1.700  0.6857E+01  0.4120E+02
   1.710  0.6837E+01  0.4127E+02
   1.720  0.6816E+01  0.4134E+02
   1.730  0.6795E+01  0.4141E+02
   1.740  0.6773E+01  0.4148E+02
   1.750  0.6750E+01  0.4154E+02
   1.760  0.6728E+01  0.4161E+02
   1.770  0.6705E+01  0.4168E+02
   1.780  0.6681E+01  0.4175E+02
   1.790  0.6657E+01  0.4181E+02
   1.800  0.6633E+01  0.4188E+02
   1.810  0.6608E+01  0.4194E+02
   1.820  0.6583E+01  0.4201E+02
   1.830  0.6558E+01  0.4208E+02
   1.840  0.6532E+01  0.4214E+02
   1.850  0.6505E+01  0.4221E+02
   1.860  0.6479E+01  0.4227E+02
   1.870  0.6451E+01  0.4234E+02
   1.880  0.6424E+01  0.4240E+02
   1.890  0.6396E+01  0.4246E+02
   1.900  0.6368E+01  0.4253E+02
   1.910  0.6339E+01  0.4259E+02
   1.920  0.6310E+01  0.4265E+02
   1.930  0.6280E+01  0.4272E+02
   1.940  0.6250E+01  0.4278E+02
   1.950  0.6220E+01  0.4284E+02
   1.960  0.6189E+01  0.4290E+02
   1.970  0.6158E+01  0.4297E+02
   1.980  0.6126E+01  0.4303E+02
   1.990  0.6094E+01  0.4309E+02
   2.000  0.6062E+01  0.4315E+02
   2.010  0.6029E+01  0.4321E+02
   2.020  0.5996E+01  0.4327E+02
   2.030  0.5963E+01  0.4333E+02
   2.040  0.5929E+01  0.4339E+02
   2.050  0.5895E+01  0.4345E+02
   2.060  0.5861E+01  0.4350E+02
   2.070  0.5826E+01  0.4356E+02
   2.080  0.5791E+01  0.4362E+02
   2.090  0.5755E+01  0.4368E+02
   2.100  0.5719E+01  0.4374E+02
   2.110  0.5683E+01  0.4379E+02
   2.120  0.5646E+01  0.4385E+02
   2.130  0.5610E+01  0.4391E+02
   2.140  0.5572E+01  0.4396E+02
   2.150  0.5535E+01  0.4402E+02
   2.160  0.5497E+01  0.4407E+02
   2.170  0.5459E+01  0.4413E+02
   2.180  0.5421E+01  0.4418E+02
   2.190  0.5382E+01  0.4423E+02
   2.200  0.5343E+01  0.4429E+02
   2.210  0.5304E+01  0.4434E+02
   2.220  0.5264E+01  0.4439E+02
   2.230  0.5225E+01  0.4445E+02
   2.240  0.5185E+01  0.4450E+02
   2.250  0.5144E+01  0.4455E+02
   2.260  0.5104E+01  0.4460E+02
   2.270  0.5063E+01  0.4465E+02
   2.280  0.5022E+01  0.4470E+02
   2.290  0.4981E+01  0.4475E+02
   2.300  0.4940E+01  0.4480E+02
   2.310  0.4898E+01  0.4485E+02
   2.320  0.4856E+01  0.4490E+02
   2.330  0.4814E+01  0.4495E+02
   2.340  0.4772E+01  0.4499E+02
   2.350  0.4729E+01  0.4504E+02
   2.360  0.4687E+01  0.4509E+02
   2.370  0.4644E+01  0.4513E+02
   2.380  0.4601E+01  0.4518E+02
   2.390  0.4558E+01  0.4523E+02
   2.400  0.4515E+01  0.4527E+02
   2.410  0.4472E+01  0.4531E+02
   2.420  0.4428E+01  0.4536E+02
   2.430  0.4385E+01  0.4540E+02
   2.440  0.4341E+01  0.4545E+02
   2.450  0.4297E+01  0.4549E+02
   2.460  0.4253E+01  0.4553E+02
   2.470  0.4209E+01  0.4557E+02
   2.480  0.4165E+01  0.4562E+02
   2.490  0.4121E+01  0.4566E+02
   2.500  0.4077E+01  0.4570E+02
   2.510  0.4033E+01  0.4574E+02
   2.520  0.3989E+01  0.4578E+02
   2.530  0.3945E+01  0.4582E+02
   2.540  0.3900E+01  0.4586E+02
   2.550  0.3856E+01  0.4589E+02
   2.560  0.3812E+01  0.4593E+02
   2.570  0.3768E+01  0.4597E+02
   2.580  0.3723E+01  0.4601E+02
   2.590  0.3679E+01  0.4604E+02
   2.600  0.3635E+01  0.4608E+02
   2.610  0.3591E+01  0.4612E+02
   2.620  0.3547E+01  0.4615E+02
   2.630  0.3503E+01  0.4619E+02
   2.640  0.3459E+01  0.4622E+02
   2.650  0.3415E+01  0.4626E+02
   2.660  0.3371E+01  0.4629E+02
   2.670  0.3327E+01  0.4632E+02
   2.680  0.3284E+01  0.4636E+02
   2.690  0.3240E+01  0.4639E+02
   2.700  0.3197E+01  0.4642E+02
   2.710  0.3153E+01  0.4645E+02
   2.720  0.3110E+01  0.4648E+02
   2.730  0.3067E+01  0.4651E+02
   2.740  0.3025E+01  0.4654E+02
   2.750  0.2982E+01  0.4657E+02
   2.760  0.2939E+01  0.4660E+02
   2.770  0.2897E+01  0.4663E+02
   2.780  0.2855E+01  0.4666E+02
   2.790  0.2813E+01  0.4669E+02
   2.800  0.2771E+01  0.4672E+02
   2.810  0.2730E+01  0.4674E+02
   2.820  0.2689E+01  0.4677E+02
   2.830  0.2648E+01  0.4680E+02
   2.840  0.2607E+01  0.4682E+02
   2.850  0.2566E+01  0.4685E+02
   2.860  0.2526E+01  0.4687E+02
   2.870  0.2486E+01  0.4690E+02
   2.880  0.2446E+01  0.4692E+02
   2.890  0.2406E+01  0.4695E+02
   2.900  0.2367E+01  0.4697E+02
   2.910  0.2328E+01  0.4699E+02
   2.920  0.2289E+01  0.4702E+02
   2.930  0.2251E+01  0.4704E+02
   2.940  0.2213E+01  0.4706E+02
   2.950  0.2175E+01  0.4708E+02
   2.960  0.2137E+01  0.4711E+02
   2.970  0.2100E+01  0.4713E+02
   2.980  0.2063E+01  0.4715E+02
   2.990  0.2027E+01  0.4717E+02
   3.000  0.1990E+01  0.4719E+02
   3.010  0.1954E+01  0.4721E+02
   3.020  0.1919E+01  0.4723E+02
   3.030  0.1884E+01  0.4724E+02
   3.040  0.1849E+01  0.4726E+02
   3.050  0.1814E+01  0.4728E+02
   3.060  0.1780E+01  0.4730E+02
   3.070  0.1746E+01  0.4732E+02
   3.080  0.1713E+01  0.4733E+02
   3.090  0.1680E+01  0.4735E+02
   3.100  0.1647E+01  0.4737E+02
   3.110  0.1614E+01  0.4738E+02
   3.120  0.1582E+01  0.4740E+02
   3.130  0.1551E+01  0.4741E+02
   3.140  0.1519E+01  0.4743E+02
   3.150  0.1489E+01  0.4744E+02
   3.160  0.1458E+01  0.4746E+02
   3.170  0.1428E+01  0.4747E+02
   3.180  0.1398E+01  0.4749E+02
   3.190  0.1369E+01  0.4750E+02
   3.200  0.1340E+01  0.4751E+02
   3.210  0.1311E+01  0.4753E+02
   3.220  0.1283E+01  0.4754E+02
   3.230  0.1255E+01  0.4755E+02
   3.240  0.1228E+01  0.4757E+02
   3.250  0.1201E+01  0.4758E+02
   3.260  0.1174E+01  0.4759E+02
   3.270  0.1148E+01  0.4760E+02
   3.280  0.1122E+01  0.4761E+02
   3.290  0.1097E+01  0.4762E+02
   3.300  0.1072E+01  0.4763E+02
   3.310  0.1047E+01  0.4764E+02
   3.320  0.1023E+01  0.4765E+02
   3.330  0.9987E+00  0.4766E+02
   3.340  0.9751E+00  0.4767E+02
   3.350  0.9520E+00  0.4768E+02
   3.360  0.9292E+00  0.4769E+02
   3.370  0.9068E+00  0.4770E+02
   3.380  0.8848E+00  0.4771E+02
   3.390  0.8632E+00  0.4772E+02
   3.400  0.8420E+00  0.4773E+02
   3.410  0.8211E+00  0.4774E+02
   3.420  0.8006E+00  0.4774E+02
   3.430  0.7805E+00  0.4775E+02
   3.440  0.7607E+00  0.4776E+02
   3.450  0.7413E+00  0.4777E+02
   3.460  0.7223E+00  0.4777E+02
   3.470  0.7036E+00  0.4778E+02
   3.480  0.6853E+00  0.4779E+02
   3.490  0.6673E+00  0.4779E+02
   3.500  0.6497E+00  0.4780E+02
   3.510  0.6325E+00  0.4781E+02
   3.520  0.6155E+00  0.4781E+02
   3.530  0.5990E+00  0.4782E+02
   3.540  0.5827E+00  0.4783E+02
   3.550  0.5668E+00  0.4783E+02
   3.560  0.5512E+00  0.4784E+02
   3.570  0.5360E+00  0.4784E+02
   3.580  0.5211E+00  0.4785E+02
   3.590  0.5065E+00  0.4785E+02
   3.600  0.4922E+00  0.4786E+02
   3.610  0.4782E+00  0.4786E+02
   3.620  0.4646E+00  0.4787E+02
   3.630  0.4512E+00  0.4787E+02
   3.640  0.4382E+00  0.4788E+02
   3.650  0.4254E+00  0.4788E+02
   3.660  0.4129E+00  0.4788E+02
   3.670  0.4008E+00  0.4789E+02
   3.680  0.3889E+00  0.4789E+02
   3.690  0.3773E+00  0.4790E+02
   3.700  0.3659E+00  0.4790E+02
   3.710  0.3549E+00  0.4790E+02
   3.720  0.3441E+00  0.4791E+02
   3.730  0.3336E+00  0.4791E+02
   3.740  0.3233E+00  0.4791E+02
   3.750  0.3133E+00  0.4792E+02
   3.760  0.3035E+00  0.4792E+02
   3.770  0.2940E+00  0.4792E+02
   3.780  0.2847E+00  0.4792E+02
   3.790  0.2757E+00  0.4793E+02
   3.800  0.2669E+00  0.4793E+02
   3.810  0.2584E+00  0.4793E+02
   3.820  0.2500E+00  0.4793E+02
   3.830  0.2419E+00  0.4794E+02
   3.840  0.2340E+00  0.4794E+02
   3.850  0.2263E+00  0.4794E+02
   3.860  0.2188E+00  0.4794E+02
   3.870  0.2116E+00  0.4795E+02
   3.880  0.2045E+00  0.4795E+02
   3.890  0.1976E+00  0.4795E+02
   3.900  0.1910E+00  0.4795E+02
   3.910  0.1845E+00  0.4795E+02
   3.920  0.1782E+00  0.4796E+02
   3.930  0.1721E+00  0.4796E+02
   3.940  0.1661E+00  0.4796E+02
   3.950  0.1603E+00  0.4796E+02
   3.960  0.1547E+00  0.4796E+02
   3.970  0.1493E+00  0.4796E+02
   3.980  0.1440E+00  0.4797E+02
   3.990  0.1389E+00  0.4797E+02
   4.000  0.1340E+00  0.4797E+02
   4.010  0.1292E+00  0.4797E+02
   4.020  0.1245E+00  0.4797E+02
   4.030  0.1200E+00  0.4797E+02
   4.040  0.1156E+00  0.4797E+02
   4.050  0.1114E+00  0.4797E+02
   4.060  0.1073E+00  0.4798E+02
   4.070  0.1033E+00  0.4798E+02
   4.080  0.9947E-01  0.4798E+02
   4.090  0.9575E-01  0.4798E+02
   4.100  0.9215E-01  0.4798E+02
   4.110  0.8867E-01  0.4798E+02
   4.120  0.8530E-01  0.4798E+02
   4.130  0.8205E-01  0.4798E+02
   4.140  0.7890E-01  0.4798E+02
   4.150  0.7586E-01  0.4798E+02
   4.160  0.7292E-01  0.4798E+02
   4.170  0.7008E-01  0.4798E+02
   4.180  0.6734E-01  0.4799E+02
   4.190  0.6469E-01  0.4799E+02
   4.200  0.6213E-01  0.4799E+02
   4.210  0.5966E-01  0.4799E+02
   4.220  0.5728E-01  0.4799E+02
   4.230  0.5499E-01  0.4799E+02
   4.240  0.5277E-01  0.4799E+02
   4.250  0.5063E-01  0.4799E+02
   4.260  0.4857E-01  0.4799E+02
   4.270  0.4659E-01  0.4799E+02
   4.280  0.4467E-01  0.4799E+02
   4.290  0.4283E-01  0.4799E+02
   4.300  0.4106E-01  0.4799E+02
   4.310  0.3934E-01  0.4799E+02
   4.320  0.3770E-01  0.4799E+02
   4.330  0.3611E-01  0.4799E+02
   4.340  0.3459E-01  0.4799E+02
   4.350  0.3312E-01  0.4799E+02
   4.360  0.3171E-01  0.4799E+02
   4.370  0.3035E-01  0.4799E+02
   4.380  0.2904E-01  0.4799E+02
   4.390  0.2779E-01  0.4799E+02
   4.400  0.2658E-01  0.4799E+02
   4.410  0.2542E-01  0.4799E+02
   4.420  0.2431E-01  0.4800E+02
   4.430  0.2324E-01  0.4800E+02
   4.440  0.2221E-01  0.4800E+02
   4.450  0.2123E-01  0.4800E+02
   4.460  0.2028E-01  0.4800E+02
   4.470  0.1937E-01  0.4800E+02
   4.480  0.1850E-01  0.4800E+02
   4.490  0.1767E-01  0.4800E+02
   4.500  0.1686E-01  0.4800E+02
   4.510  0.1610E-01  0.4800E+02
   4.520  0.1536E-01  0.4800E+02
   4.530  0.1465E-01  0.4800E+02
   4.540  0.1398E-01  0.4800E+02
   4.550  0.1333E-01  0.4800E+02
   4.560  0.1271E-01  0.4800E+02
   4.570  0.1211E-01  0.4800E+02
   4.580  0.1155E-01  0.4800E+02
   4.590  0.1100E-01  0.4800E+02
   4.600  0.1048E-01  0.4800E+02
   4.610  0.9983E-02  0.4800E+02
   4.620  0.9506E-02  0.4800E+02
   4.630  0.9050E-02  0.4800E+02
   4.640  0.8615E-02  0.4800E+02
   4.650  0.8199E-02  0.4800E+02
   4.660  0.7801E-02  0.4800E+02
   4.670  0.7421E-02  0.4800E+02
   4.680  0.7058E-02  0.4800E+02
   4.690  0.6711E-02  0.4800E+02
   4.700  0.6380E-02  0.4800E+02
   4.710  0.6064E-02  0.4800E+02
   4.720  0.5763E-02  0.4800E+02
   4.730  0.5475E-02  0.4800E+02
   4.740  0.5201E-02  0.4800E+02
   4.750  0.4940E-02  0.4800E+02
   4.760  0.4690E-02  0.4800E+02
   4.770  0.4452E-02  0.4800E+02
   4.780  0.4226E-02  0.4800E+02
   4.790  0.4010E-02  0.4800E+02
   4.800  0.3804E-02  0.4800E+02
   4.810  0.3608E-02  0.4800E+02
   4.820  0.3422E-02  0.4800E+02
   4.830  0.3244E-02  0.4800E+02
   4.840  0.3076E-02  0.4800E+02
   4.850  0.2915E-02  0.4800E+02
   4.860  0.2762E-02  0.4800E+02
   4.870  0.2616E-02  0.4800E+02
   4.880  0.2478E-02  0.4800E+02
   4.890  0.2347E-02  0.4800E+02
   4.900  0.2222E-02  0.4800E+02
   4.910  0.2103E-02  0.4800E+02
   4.920  0.1990E-02  0.4800E+02
   4.930  0.1883E-02  0.4800E+02
   4.940  0.1781E-02  0.4800E+02
   4.950  0.1684E-02  0.4800E+02
   4.960  0.1593E-02  0.4800E+02
   4.970  0.1506E-02  0.4800E+02
   4.980  0.1423E-02  0.4800E+02
   4.990  0.1345E-02  0.4800E+02
   5.000  0.1270E-02  0.4800E+02
   5.010  0.1200E-02  0.4800E+02
   5.020  0.1133E-02  0.4800E+02
   5.030  0.1070E-02  0.4800E+02
   5.040  0.1010E-02  0.4800E+02
   5.050  0.9531E-03  0.4800E+02
   5.060  0.8994E-03  0.4800E+02
   5.070  0.8484E-03  0.4800E+02
   5.080  0.8002E-03  0.4800E+02
   5.090  0.7546E-03  0.4800E+02
   5.100  0.7114E-03  0.4800E+02
   5.110  0.6705E-03  0.4800E+02
   5.120  0.6319E-03  0.4800E+02
   5.130  0.5953E-03  0.4800E+02
   5.140  0.5608E-03  0.4800E+02
   5.150  0.5281E-03  0.4800E+02
   5.160  0.4973E-03  0.4800E+02
   5.170  0.4681E-03  0.4800E+02
   5.180  0.4406E-03  0.4800E+02
   5.190  0.4146E-03  0.4800E+02
   5.200  0.3900E-03  0.4800E+02
   5.210  0.3669E-03  0.4800E+02
   5.220  0.3450E-03  0.4800E+02
   5.230  0.3244E-03  0.4800E+02
   5.240  0.3049E-03  0.4800E+02
   5.250  0.2865E-03  0.4800E+02
   5.260  0.2692E-03  0.4800E+02
   5.270  0.2529E-03  0.4800E+02
   5.280  0.2375E-03  0.4800E+02
   5.290  0.2230E-03  0.4800E+02
   5.300  0.2094E-03  0.4800E+02
   5.310  0.1965E-03  0.4800E+02
   5.320  0.1844E-03  0.4800E+02
   5.330  0.1730E-03  0.4800E+02
   5.340  0.1623E-03  0.4800E+02
   5.350  0.1522E-03  0.4800E+02
   5.360  0.1427E-03  0.4800E+02
   5.370  0.1338E-03  0.4800E+02
   5.380  0.1254E-03  0.4800E+02
   5.390  0.1175E-03  0.4800E+02
   5.400  0.1100E-03  0.4800E+02
   5.410  0.1031E-03  0.4800E+02
   5.420  0.9651E-04  0.4800E+02
   5.430  0.9035E-04  0.4800E+02
