#  E (eV)   dos(E)     Int dos(E) EFermi =    2.576 eV
 -20.038  0.1754E-04  0.1754E-06
 -20.028  0.1862E-04  0.3615E-06
 -20.018  0.1976E-04  0.5591E-06
 -20.008  0.2096E-04  0.7687E-06
 -19.998  0.2224E-04  0.9912E-06
 -19.988  0.2359E-04  0.1227E-05
 -19.978  0.2502E-04  0.1477E-05
 -19.968  0.2654E-04  0.1743E-05
 -19.958  0.2814E-04  0.2024E-05
 -19.948  0.2983E-04  0.2322E-05
 -19.938  0.3161E-04  0.2638E-05
 -19.928  0.3350E-04  0.2973E-05
 -19.918  0.3550E-04  0.3328E-05
 -19.908  0.3761E-04  0.3705E-05
 -19.898  0.3984E-04  0.4103E-05
 -19.888  0.4219E-04  0.4525E-05
 -19.878  0.4468E-04  0.4972E-05
 -19.868  0.4731E-04  0.5445E-05
 -19.858  0.5008E-04  0.5946E-05
 -19.848  0.5300E-04  0.6476E-05
 -19.838  0.5609E-04  0.7037E-05
 -19.828  0.5935E-04  0.7630E-05
 -19.818  0.6279E-04  0.8258E-05
 -19.808  0.6641E-04  0.8922E-05
 -19.798  0.7024E-04  0.9624E-05
 -19.788  0.7427E-04  0.1037E-04
 -19.778  0.7852E-04  0.1115E-04
 -19.768  0.8301E-04  0.1198E-04
 -19.758  0.8773E-04  0.1286E-04
 -19.748  0.9271E-04  0.1379E-04
 -19.738  0.9796E-04  0.1477E-04
 -19.728  0.1035E-03  0.1580E-04
 -19.718  0.1093E-03  0.1689E-04
 -19.708  0.1154E-03  0.1805E-04
 -19.698  0.1219E-03  0.1927E-04
 -19.688  0.1287E-03  0.2055E-04
 -19.678  0.1358E-03  0.2191E-04
 -19.668  0.1434E-03  0.2335E-04
 -19.658  0.1513E-03  0.2486E-04
 -19.648  0.1596E-03  0.2646E-04
 -19.638  0.1684E-03  0.2814E-04
 -19.628  0.1776E-03  0.2992E-04
 -19.618  0.1873E-03  0.3179E-04
 -19.608  0.1975E-03  0.3376E-04
 -19.598  0.2082E-03  0.3585E-04
 -19.588  0.2195E-03  0.3804E-04
 -19.578  0.2313E-03  0.4035E-04
 -19.568  0.2437E-03  0.4279E-04
 -19.558  0.2568E-03  0.4536E-04
 -19.548  0.2705E-03  0.4806E-04
 -19.538  0.2849E-03  0.5091E-04
 -19.528  0.3001E-03  0.5391E-04
 -19.518  0.3159E-03  0.5707E-04
 -19.508  0.3326E-03  0.6040E-04
 -19.498  0.3501E-03  0.6390E-04
 -19.488  0.3685E-03  0.6758E-04
 -19.478  0.3877E-03  0.7146E-04
 -19.468  0.4079E-03  0.7554E-04
 -19.458  0.4291E-03  0.7983E-04
 -19.448  0.4513E-03  0.8435E-04
 -19.438  0.4746E-03  0.8909E-04
 -19.428  0.4990E-03  0.9408E-04
 -19.418  0.5246E-03  0.9933E-04
 -19.408  0.5514E-03  0.1048E-03
 -19.398  0.5795E-03  0.1106E-03
 -19.388  0.6089E-03  0.1167E-03
 -19.378  0.6397E-03  0.1231E-03
 -19.368  0.6720E-03  0.1298E-03
 -19.358  0.7058E-03  0.1369E-03
 -19.348  0.7412E-03  0.1443E-03
 -19.338  0.7782E-03  0.1521E-03
 -19.328  0.8170E-03  0.1603E-03
 -19.318  0.8575E-03  0.1688E-03
 -19.308  0.8999E-03  0.1778E-03
 -19.298  0.9443E-03  0.1873E-03
 -19.288  0.9907E-03  0.1972E-03
 -19.278  0.1039E-02  0.2076E-03
 -19.268  0.1090E-02  0.2185E-03
 -19.258  0.1143E-02  0.2299E-03
 -19.248  0.1198E-02  0.2419E-03
 -19.238  0.1256E-02  0.2545E-03
 -19.228  0.1317E-02  0.2676E-03
 -19.218  0.1380E-02  0.2814E-03
 -19.208  0.1446E-02  0.2959E-03
 -19.198  0.1515E-02  0.3110E-03
 -19.188  0.1587E-02  0.3269E-03
 -19.178  0.1662E-02  0.3435E-03
 -19.168  0.1740E-02  0.3609E-03
 -19.158  0.1822E-02  0.3791E-03
 -19.148  0.1907E-02  0.3982E-03
 -19.138  0.1996E-02  0.4182E-03
 -19.128  0.2089E-02  0.4391E-03
 -19.118  0.2186E-02  0.4609E-03
 -19.108  0.2287E-02  0.4838E-03
 -19.098  0.2392E-02  0.5077E-03
 -19.088  0.2502E-02  0.5328E-03
 -19.078  0.2617E-02  0.5589E-03
 -19.068  0.2736E-02  0.5863E-03
 -19.058  0.2860E-02  0.6149E-03
 -19.048  0.2989E-02  0.6448E-03
 -19.038  0.3124E-02  0.6760E-03
 -19.028  0.3264E-02  0.7086E-03
 -19.018  0.3410E-02  0.7427E-03
 -19.008  0.3562E-02  0.7784E-03
 -18.998  0.3720E-02  0.8156E-03
 -18.988  0.3885E-02  0.8544E-03
 -18.978  0.4056E-02  0.8950E-03
 -18.968  0.4234E-02  0.9373E-03
 -18.958  0.4420E-02  0.9815E-03
 -18.948  0.4612E-02  0.1028E-02
 -18.938  0.4813E-02  0.1076E-02
 -18.928  0.5021E-02  0.1126E-02
 -18.918  0.5237E-02  0.1178E-02
 -18.908  0.5462E-02  0.1233E-02
 -18.898  0.5696E-02  0.1290E-02
 -18.888  0.5939E-02  0.1349E-02
 -18.878  0.6191E-02  0.1411E-02
 -18.868  0.6453E-02  0.1476E-02
 -18.858  0.6725E-02  0.1543E-02
 -18.848  0.7007E-02  0.1613E-02
 -18.838  0.7300E-02  0.1686E-02
 -18.828  0.7605E-02  0.1762E-02
 -18.818  0.7920E-02  0.1841E-02
 -18.808  0.8248E-02  0.1924E-02
 -18.798  0.8587E-02  0.2010E-02
 -18.788  0.8940E-02  0.2099E-02
 -18.778  0.9305E-02  0.2192E-02
 -18.768  0.9684E-02  0.2289E-02
 -18.758  0.1008E-01  0.2390E-02
 -18.748  0.1048E-01  0.2495E-02
 -18.738  0.1091E-01  0.2604E-02
 -18.728  0.1134E-01  0.2717E-02
 -18.718  0.1179E-01  0.2835E-02
 -18.708  0.1226E-01  0.2958E-02
 -18.698  0.1275E-01  0.3085E-02
 -18.688  0.1325E-01  0.3218E-02
 -18.678  0.1377E-01  0.3355E-02
 -18.668  0.1431E-01  0.3498E-02
 -18.658  0.1487E-01  0.3647E-02
 -18.648  0.1544E-01  0.3802E-02
 -18.638  0.1604E-01  0.3962E-02
 -18.628  0.1666E-01  0.4129E-02
 -18.618  0.1730E-01  0.4302E-02
 -18.608  0.1796E-01  0.4481E-02
 -18.598  0.1864E-01  0.4668E-02
 -18.588  0.1934E-01  0.4861E-02
 -18.578  0.2007E-01  0.5062E-02
 -18.568  0.2083E-01  0.5270E-02
 -18.558  0.2160E-01  0.5486E-02
 -18.548  0.2241E-01  0.5710E-02
 -18.538  0.2324E-01  0.5942E-02
 -18.528  0.2410E-01  0.6183E-02
 -18.518  0.2498E-01  0.6433E-02
 -18.508  0.2590E-01  0.6692E-02
 -18.498  0.2684E-01  0.6961E-02
 -18.488  0.2781E-01  0.7239E-02
 -18.478  0.2882E-01  0.7527E-02
 -18.468  0.2985E-01  0.7825E-02
 -18.458  0.3092E-01  0.8135E-02
 -18.448  0.3202E-01  0.8455E-02
 -18.438  0.3316E-01  0.8786E-02
 -18.428  0.3433E-01  0.9130E-02
 -18.418  0.3554E-01  0.9485E-02
 -18.408  0.3678E-01  0.9853E-02
 -18.398  0.3806E-01  0.1023E-01
 -18.388  0.3938E-01  0.1063E-01
 -18.378  0.4074E-01  0.1103E-01
 -18.368  0.4215E-01  0.1146E-01
 -18.358  0.4359E-01  0.1189E-01
 -18.348  0.4507E-01  0.1234E-01
 -18.338  0.4660E-01  0.1281E-01
 -18.328  0.4818E-01  0.1329E-01
 -18.318  0.4980E-01  0.1379E-01
 -18.308  0.5146E-01  0.1430E-01
 -18.298  0.5317E-01  0.1483E-01
 -18.288  0.5494E-01  0.1538E-01
 -18.278  0.5675E-01  0.1595E-01
 -18.268  0.5861E-01  0.1654E-01
 -18.258  0.6053E-01  0.1714E-01
 -18.248  0.6250E-01  0.1777E-01
 -18.238  0.6452E-01  0.1841E-01
 -18.228  0.6660E-01  0.1908E-01
 -18.218  0.6873E-01  0.1977E-01
 -18.208  0.7093E-01  0.2048E-01
 -18.198  0.7318E-01  0.2121E-01
 -18.188  0.7549E-01  0.2196E-01
 -18.178  0.7787E-01  0.2274E-01
 -18.168  0.8030E-01  0.2354E-01
 -18.158  0.8280E-01  0.2437E-01
 -18.148  0.8537E-01  0.2523E-01
 -18.138  0.8800E-01  0.2611E-01
 -18.128  0.9070E-01  0.2701E-01
 -18.118  0.9347E-01  0.2795E-01
 -18.108  0.9631E-01  0.2891E-01
 -18.098  0.9922E-01  0.2990E-01
 -18.088  0.1022E+00  0.3093E-01
 -18.078  0.1053E+00  0.3198E-01
 -18.068  0.1084E+00  0.3306E-01
 -18.058  0.1116E+00  0.3418E-01
 -18.048  0.1149E+00  0.3533E-01
 -18.038  0.1183E+00  0.3651E-01
 -18.028  0.1217E+00  0.3773E-01
 -18.018  0.1253E+00  0.3898E-01
 -18.008  0.1289E+00  0.4027E-01
 -17.998  0.1326E+00  0.4159E-01
 -17.988  0.1364E+00  0.4296E-01
 -17.978  0.1402E+00  0.4436E-01
 -17.968  0.1442E+00  0.4580E-01
 -17.958  0.1482E+00  0.4728E-01
 -17.948  0.1524E+00  0.4881E-01
 -17.938  0.1566E+00  0.5037E-01
 -17.928  0.1610E+00  0.5198E-01
 -17.918  0.1654E+00  0.5364E-01
 -17.908  0.1699E+00  0.5534E-01
 -17.898  0.1745E+00  0.5708E-01
 -17.888  0.1793E+00  0.5888E-01
 -17.878  0.1841E+00  0.6072E-01
 -17.868  0.1890E+00  0.6261E-01
 -17.858  0.1941E+00  0.6455E-01
 -17.848  0.1992E+00  0.6654E-01
 -17.838  0.2044E+00  0.6858E-01
 -17.828  0.2098E+00  0.7068E-01
 -17.818  0.2153E+00  0.7283E-01
 -17.808  0.2208E+00  0.7504E-01
 -17.798  0.2265E+00  0.7731E-01
 -17.788  0.2323E+00  0.7963E-01
 -17.778  0.2382E+00  0.8201E-01
 -17.768  0.2443E+00  0.8446E-01
 -17.758  0.2504E+00  0.8696E-01
 -17.748  0.2567E+00  0.8953E-01
 -17.738  0.2630E+00  0.9216E-01
 -17.728  0.2695E+00  0.9485E-01
 -17.718  0.2762E+00  0.9761E-01
 -17.708  0.2829E+00  0.1004E+00
 -17.698  0.2898E+00  0.1033E+00
 -17.688  0.2968E+00  0.1063E+00
 -17.678  0.3039E+00  0.1093E+00
 -17.668  0.3112E+00  0.1125E+00
 -17.658  0.3185E+00  0.1156E+00
 -17.648  0.3260E+00  0.1189E+00
 -17.638  0.3337E+00  0.1222E+00
 -17.628  0.3414E+00  0.1257E+00
 -17.618  0.3493E+00  0.1291E+00
 -17.608  0.3574E+00  0.1327E+00
 -17.598  0.3655E+00  0.1364E+00
 -17.588  0.3739E+00  0.1401E+00
 -17.578  0.3823E+00  0.1439E+00
 -17.568  0.3909E+00  0.1478E+00
 -17.558  0.3996E+00  0.1518E+00
 -17.548  0.4084E+00  0.1559E+00
 -17.538  0.4174E+00  0.1601E+00
 -17.528  0.4265E+00  0.1644E+00
 -17.518  0.4358E+00  0.1687E+00
 -17.508  0.4452E+00  0.1732E+00
 -17.498  0.4548E+00  0.1777E+00
 -17.488  0.4645E+00  0.1824E+00
 -17.478  0.4743E+00  0.1871E+00
 -17.468  0.4843E+00  0.1920E+00
 -17.458  0.4944E+00  0.1969E+00
 -17.448  0.5046E+00  0.2019E+00
 -17.438  0.5151E+00  0.2071E+00
 -17.428  0.5256E+00  0.2124E+00
 -17.418  0.5363E+00  0.2177E+00
 -17.408  0.5471E+00  0.2232E+00
 -17.398  0.5581E+00  0.2288E+00
 -17.388  0.5692E+00  0.2345E+00
 -17.378  0.5805E+00  0.2403E+00
 -17.368  0.5919E+00  0.2462E+00
 -17.358  0.6035E+00  0.2522E+00
 -17.348  0.6152E+00  0.2584E+00
 -17.338  0.6271E+00  0.2646E+00
 -17.328  0.6391E+00  0.2710E+00
 -17.318  0.6512E+00  0.2775E+00
 -17.308  0.6635E+00  0.2842E+00
 -17.298  0.6759E+00  0.2909E+00
 -17.288  0.6885E+00  0.2978E+00
 -17.278  0.7012E+00  0.3048E+00
 -17.268  0.7141E+00  0.3120E+00
 -17.258  0.7271E+00  0.3192E+00
 -17.248  0.7402E+00  0.3267E+00
 -17.238  0.7535E+00  0.3342E+00
 -17.228  0.7669E+00  0.3419E+00
 -17.218  0.7805E+00  0.3497E+00
 -17.208  0.7942E+00  0.3576E+00
 -17.198  0.8080E+00  0.3657E+00
 -17.188  0.8220E+00  0.3739E+00
 -17.178  0.8361E+00  0.3823E+00
 -17.168  0.8504E+00  0.3908E+00
 -17.158  0.8648E+00  0.3994E+00
 -17.148  0.8793E+00  0.4082E+00
 -17.138  0.8939E+00  0.4171E+00
 -17.128  0.9087E+00  0.4262E+00
 -17.118  0.9236E+00  0.4355E+00
 -17.108  0.9387E+00  0.4449E+00
 -17.098  0.9539E+00  0.4544E+00
 -17.088  0.9692E+00  0.4641E+00
 -17.078  0.9846E+00  0.4739E+00
 -17.068  0.1000E+01  0.4839E+00
 -17.058  0.1016E+01  0.4941E+00
 -17.048  0.1032E+01  0.5044E+00
 -17.038  0.1048E+01  0.5149E+00
 -17.028  0.1064E+01  0.5255E+00
 -17.018  0.1080E+01  0.5363E+00
 -17.008  0.1096E+01  0.5473E+00
 -16.998  0.1112E+01  0.5584E+00
 -16.988  0.1129E+01  0.5697E+00
 -16.978  0.1146E+01  0.5812E+00
 -16.968  0.1162E+01  0.5928E+00
 -16.958  0.1179E+01  0.6046E+00
 -16.948  0.1196E+01  0.6165E+00
 -16.938  0.1213E+01  0.6287E+00
 -16.928  0.1230E+01  0.6410E+00
 -16.918  0.1248E+01  0.6534E+00
 -16.908  0.1265E+01  0.6661E+00
 -16.898  0.1282E+01  0.6789E+00
 -16.888  0.1300E+01  0.6919E+00
 -16.878  0.1318E+01  0.7051E+00
 -16.868  0.1335E+01  0.7184E+00
 -16.858  0.1353E+01  0.7320E+00
 -16.848  0.1371E+01  0.7457E+00
 -16.838  0.1389E+01  0.7596E+00
 -16.828  0.1407E+01  0.7737E+00
 -16.818  0.1426E+01  0.7879E+00
 -16.808  0.1444E+01  0.8024E+00
 -16.798  0.1462E+01  0.8170E+00
 -16.788  0.1481E+01  0.8318E+00
 -16.778  0.1499E+01  0.8468E+00
 -16.768  0.1518E+01  0.8619E+00
 -16.758  0.1536E+01  0.8773E+00
 -16.748  0.1555E+01  0.8929E+00
 -16.738  0.1574E+01  0.9086E+00
 -16.728  0.1593E+01  0.9245E+00
 -16.718  0.1612E+01  0.9406E+00
 -16.708  0.1631E+01  0.9570E+00
 -16.698  0.1650E+01  0.9734E+00
 -16.688  0.1669E+01  0.9901E+00
 -16.678  0.1688E+01  0.1007E+01
 -16.668  0.1707E+01  0.1024E+01
 -16.658  0.1727E+01  0.1041E+01
 -16.648  0.1746E+01  0.1059E+01
 -16.638  0.1765E+01  0.1076E+01
 -16.628  0.1785E+01  0.1094E+01
 -16.618  0.1804E+01  0.1112E+01
 -16.608  0.1824E+01  0.1131E+01
 -16.598  0.1843E+01  0.1149E+01
 -16.588  0.1863E+01  0.1168E+01
 -16.578  0.1883E+01  0.1186E+01
 -16.568  0.1902E+01  0.1205E+01
 -16.558  0.1922E+01  0.1225E+01
 -16.548  0.1942E+01  0.1244E+01
 -16.538  0.1961E+01  0.1264E+01
 -16.528  0.1981E+01  0.1284E+01
 -16.518  0.2001E+01  0.1304E+01
 -16.508  0.2021E+01  0.1324E+01
 -16.498  0.2041E+01  0.1344E+01
 -16.488  0.2061E+01  0.1365E+01
 -16.478  0.2081E+01  0.1386E+01
 -16.468  0.2101E+01  0.1407E+01
 -16.458  0.2121E+01  0.1428E+01
 -16.448  0.2141E+01  0.1449E+01
 -16.438  0.2161E+01  0.1471E+01
 -16.428  0.2181E+01  0.1493E+01
 -16.418  0.2201E+01  0.1515E+01
 -16.408  0.2221E+01  0.1537E+01
 -16.398  0.2241E+01  0.1559E+01
 -16.388  0.2261E+01  0.1582E+01
 -16.378  0.2282E+01  0.1605E+01
 -16.368  0.2302E+01  0.1628E+01
 -16.358  0.2322E+01  0.1651E+01
 -16.348  0.2342E+01  0.1674E+01
 -16.338  0.2362E+01  0.1698E+01
 -16.328  0.2382E+01  0.1722E+01
 -16.318  0.2403E+01  0.1746E+01
 -16.308  0.2423E+01  0.1770E+01
 -16.298  0.2443E+01  0.1795E+01
 -16.288  0.2463E+01  0.1819E+01
 -16.278  0.2483E+01  0.1844E+01
 -16.268  0.2504E+01  0.1869E+01
 -16.258  0.2524E+01  0.1894E+01
 -16.248  0.2544E+01  0.1920E+01
 -16.238  0.2564E+01  0.1945E+01
 -16.228  0.2585E+01  0.1971E+01
 -16.218  0.2605E+01  0.1997E+01
 -16.208  0.2625E+01  0.2023E+01
 -16.198  0.2645E+01  0.2050E+01
 -16.188  0.2665E+01  0.2077E+01
 -16.178  0.2686E+01  0.2103E+01
 -16.168  0.2706E+01  0.2131E+01
 -16.158  0.2726E+01  0.2158E+01
 -16.148  0.2746E+01  0.2185E+01
 -16.138  0.2766E+01  0.2213E+01
 -16.128  0.2786E+01  0.2241E+01
 -16.118  0.2807E+01  0.2269E+01
 -16.108  0.2827E+01  0.2297E+01
 -16.098  0.2847E+01  0.2326E+01
 -16.088  0.2867E+01  0.2354E+01
 -16.078  0.2887E+01  0.2383E+01
 -16.068  0.2907E+01  0.2412E+01
 -16.058  0.2927E+01  0.2441E+01
 -16.048  0.2947E+01  0.2471E+01
 -16.038  0.2968E+01  0.2501E+01
 -16.028  0.2988E+01  0.2530E+01
 -16.018  0.3008E+01  0.2561E+01
 -16.008  0.3028E+01  0.2591E+01
 -15.998  0.3048E+01  0.2621E+01
 -15.988  0.3068E+01  0.2652E+01
 -15.978  0.3088E+01  0.2683E+01
 -15.968  0.3108E+01  0.2714E+01
 -15.958  0.3128E+01  0.2745E+01
 -15.948  0.3147E+01  0.2777E+01
 -15.938  0.3167E+01  0.2808E+01
 -15.928  0.3187E+01  0.2840E+01
 -15.918  0.3207E+01  0.2872E+01
 -15.908  0.3227E+01  0.2905E+01
 -15.898  0.3247E+01  0.2937E+01
 -15.888  0.3266E+01  0.2970E+01
 -15.878  0.3286E+01  0.3003E+01
 -15.868  0.3306E+01  0.3036E+01
 -15.858  0.3326E+01  0.3069E+01
 -15.848  0.3345E+01  0.3102E+01
 -15.838  0.3365E+01  0.3136E+01
 -15.828  0.3385E+01  0.3170E+01
 -15.818  0.3404E+01  0.3204E+01
 -15.808  0.3424E+01  0.3238E+01
 -15.798  0.3443E+01  0.3273E+01
 -15.788  0.3463E+01  0.3307E+01
 -15.778  0.3482E+01  0.3342E+01
 -15.768  0.3501E+01  0.3377E+01
 -15.758  0.3521E+01  0.3412E+01
 -15.748  0.3540E+01  0.3448E+01
 -15.738  0.3559E+01  0.3483E+01
 -15.728  0.3578E+01  0.3519E+01
 -15.718  0.3597E+01  0.3555E+01
 -15.708  0.3616E+01  0.3591E+01
 -15.698  0.3635E+01  0.3627E+01
 -15.688  0.3654E+01  0.3664E+01
 -15.678  0.3673E+01  0.3701E+01
 -15.668  0.3692E+01  0.3738E+01
 -15.658  0.3710E+01  0.3775E+01
 -15.648  0.3729E+01  0.3812E+01
 -15.638  0.3748E+01  0.3850E+01
 -15.628  0.3766E+01  0.3887E+01
 -15.618  0.3784E+01  0.3925E+01
 -15.608  0.3803E+01  0.3963E+01
 -15.598  0.3821E+01  0.4001E+01
 -15.588  0.3839E+01  0.4040E+01
 -15.578  0.3857E+01  0.4078E+01
 -15.568  0.3875E+01  0.4117E+01
 -15.558  0.3893E+01  0.4156E+01
 -15.548  0.3910E+01  0.4195E+01
 -15.538  0.3928E+01  0.4234E+01
 -15.528  0.3945E+01  0.4274E+01
 -15.518  0.3963E+01  0.4313E+01
 -15.508  0.3980E+01  0.4353E+01
 -15.498  0.3997E+01  0.4393E+01
 -15.488  0.4014E+01  0.4433E+01
 -15.478  0.4031E+01  0.4474E+01
 -15.468  0.4047E+01  0.4514E+01
 -15.458  0.4064E+01  0.4555E+01
 -15.448  0.4080E+01  0.4595E+01
 -15.438  0.4096E+01  0.4636E+01
 -15.428  0.4112E+01  0.4678E+01
 -15.418  0.4128E+01  0.4719E+01
 -15.408  0.4144E+01  0.4760E+01
 -15.398  0.4159E+01  0.4802E+01
 -15.388  0.4175E+01  0.4844E+01
 -15.378  0.4190E+01  0.4886E+01
 -15.368  0.4205E+01  0.4928E+01
 -15.358  0.4219E+01  0.4970E+01
 -15.348  0.4234E+01  0.5012E+01
 -15.338  0.4248E+01  0.5055E+01
 -15.328  0.4262E+01  0.5097E+01
 -15.318  0.4276E+01  0.5140E+01
 -15.308  0.4289E+01  0.5183E+01
 -15.298  0.4303E+01  0.5226E+01
 -15.288  0.4316E+01  0.5269E+01
 -15.278  0.4329E+01  0.5312E+01
 -15.268  0.4341E+01  0.5356E+01
 -15.258  0.4354E+01  0.5399E+01
 -15.248  0.4366E+01  0.5443E+01
 -15.238  0.4377E+01  0.5487E+01
 -15.228  0.4389E+01  0.5531E+01
 -15.218  0.4400E+01  0.5575E+01
 -15.208  0.4411E+01  0.5619E+01
 -15.198  0.4422E+01  0.5663E+01
 -15.188  0.4432E+01  0.5707E+01
 -15.178  0.4442E+01  0.5752E+01
 -15.168  0.4452E+01  0.5796E+01
 -15.158  0.4461E+01  0.5841E+01
 -15.148  0.4470E+01  0.5885E+01
 -15.138  0.4479E+01  0.5930E+01
 -15.128  0.4487E+01  0.5975E+01
 -15.118  0.4495E+01  0.6020E+01
 -15.108  0.4503E+01  0.6065E+01
 -15.098  0.4510E+01  0.6110E+01
 -15.088  0.4517E+01  0.6155E+01
 -15.078  0.4524E+01  0.6201E+01
 -15.068  0.4530E+01  0.6246E+01
 -15.058  0.4536E+01  0.6291E+01
 -15.048  0.4541E+01  0.6337E+01
 -15.038  0.4546E+01  0.6382E+01
 -15.028  0.4551E+01  0.6428E+01
 -15.018  0.4555E+01  0.6473E+01
 -15.008  0.4559E+01  0.6519E+01
 -14.998  0.4562E+01  0.6564E+01
 -14.988  0.4565E+01  0.6610E+01
 -14.978  0.4568E+01  0.6656E+01
 -14.968  0.4570E+01  0.6701E+01
 -14.958  0.4572E+01  0.6747E+01
 -14.948  0.4573E+01  0.6793E+01
 -14.938  0.4574E+01  0.6839E+01
 -14.928  0.4574E+01  0.6884E+01
 -14.918  0.4574E+01  0.6930E+01
 -14.908  0.4574E+01  0.6976E+01
 -14.898  0.4573E+01  0.7022E+01
 -14.888  0.4571E+01  0.7067E+01
 -14.878  0.4569E+01  0.7113E+01
 -14.868  0.4567E+01  0.7159E+01
 -14.858  0.4564E+01  0.7204E+01
 -14.848  0.4561E+01  0.7250E+01
 -14.838  0.4557E+01  0.7295E+01
 -14.828  0.4553E+01  0.7341E+01
 -14.818  0.4548E+01  0.7386E+01
 -14.808  0.4543E+01  0.7432E+01
 -14.798  0.4538E+01  0.7477E+01
 -14.788  0.4531E+01  0.7523E+01
 -14.778  0.4525E+01  0.7568E+01
 -14.768  0.4518E+01  0.7613E+01
 -14.758  0.4510E+01  0.7658E+01
 -14.748  0.4502E+01  0.7703E+01
 -14.738  0.4493E+01  0.7748E+01
 -14.728  0.4484E+01  0.7793E+01
 -14.718  0.4475E+01  0.7838E+01
 -14.708  0.4465E+01  0.7882E+01
 -14.698  0.4454E+01  0.7927E+01
 -14.688  0.4443E+01  0.7971E+01
 -14.678  0.4432E+01  0.8016E+01
 -14.668  0.4420E+01  0.8060E+01
 -14.658  0.4407E+01  0.8104E+01
 -14.648  0.4394E+01  0.8148E+01
 -14.638  0.4381E+01  0.8192E+01
 -14.628  0.4367E+01  0.8235E+01
 -14.618  0.4352E+01  0.8279E+01
 -14.608  0.4338E+01  0.8322E+01
 -14.598  0.4322E+01  0.8365E+01
 -14.588  0.4306E+01  0.8408E+01
 -14.578  0.4290E+01  0.8451E+01
 -14.568  0.4273E+01  0.8494E+01
 -14.558  0.4256E+01  0.8537E+01
 -14.548  0.4238E+01  0.8579E+01
 -14.538  0.4220E+01  0.8621E+01
 -14.528  0.4202E+01  0.8663E+01
 -14.518  0.4183E+01  0.8705E+01
 -14.508  0.4163E+01  0.8747E+01
 -14.498  0.4143E+01  0.8788E+01
 -14.488  0.4123E+01  0.8829E+01
 -14.478  0.4102E+01  0.8870E+01
 -14.468  0.4081E+01  0.8911E+01
 -14.458  0.4059E+01  0.8952E+01
 -14.448  0.4037E+01  0.8992E+01
 -14.438  0.4015E+01  0.9032E+01
 -14.428  0.3992E+01  0.9072E+01
 -14.418  0.3969E+01  0.9112E+01
 -14.408  0.3945E+01  0.9151E+01
 -14.398  0.3921E+01  0.9191E+01
 -14.388  0.3897E+01  0.9230E+01
 -14.378  0.3872E+01  0.9268E+01
 -14.368  0.3847E+01  0.9307E+01
 -14.358  0.3822E+01  0.9345E+01
 -14.348  0.3796E+01  0.9383E+01
 -14.338  0.3770E+01  0.9421E+01
 -14.328  0.3744E+01  0.9458E+01
 -14.318  0.3717E+01  0.9495E+01
 -14.308  0.3690E+01  0.9532E+01
 -14.298  0.3662E+01  0.9569E+01
 -14.288  0.3635E+01  0.9605E+01
 -14.278  0.3607E+01  0.9641E+01
 -14.268  0.3578E+01  0.9677E+01
 -14.258  0.3550E+01  0.9713E+01
 -14.248  0.3521E+01  0.9748E+01
 -14.238  0.3492E+01  0.9783E+01
 -14.228  0.3463E+01  0.9817E+01
 -14.218  0.3433E+01  0.9852E+01
 -14.208  0.3404E+01  0.9886E+01
 -14.198  0.3374E+01  0.9919E+01
 -14.188  0.3343E+01  0.9953E+01
 -14.178  0.3313E+01  0.9986E+01
 -14.168  0.3282E+01  0.1002E+02
 -14.158  0.3252E+01  0.1005E+02
 -14.148  0.3221E+01  0.1008E+02
 -14.138  0.3190E+01  0.1012E+02
 -14.128  0.3158E+01  0.1015E+02
 -14.118  0.3127E+01  0.1018E+02
 -14.108  0.3096E+01  0.1021E+02
 -14.098  0.3064E+01  0.1024E+02
 -14.088  0.3032E+01  0.1027E+02
 -14.078  0.3000E+01  0.1030E+02
 -14.068  0.2968E+01  0.1033E+02
 -14.058  0.2936E+01  0.1036E+02
 -14.048  0.2904E+01  0.1039E+02
 -14.038  0.2872E+01  0.1042E+02
 -14.028  0.2840E+01  0.1045E+02
 -14.018  0.2807E+01  0.1047E+02
 -14.008  0.2775E+01  0.1050E+02
 -13.998  0.2743E+01  0.1053E+02
 -13.988  0.2710E+01  0.1056E+02
 -13.978  0.2678E+01  0.1058E+02
 -13.968  0.2645E+01  0.1061E+02
 -13.958  0.2613E+01  0.1064E+02
 -13.948  0.2580E+01  0.1066E+02
 -13.938  0.2548E+01  0.1069E+02
 -13.928  0.2516E+01  0.1071E+02
 -13.918  0.2483E+01  0.1074E+02
 -13.908  0.2451E+01  0.1076E+02
 -13.898  0.2419E+01  0.1079E+02
 -13.888  0.2387E+01  0.1081E+02
 -13.878  0.2355E+01  0.1083E+02
 -13.868  0.2322E+01  0.1086E+02
 -13.858  0.2291E+01  0.1088E+02
 -13.848  0.2259E+01  0.1090E+02
 -13.838  0.2227E+01  0.1092E+02
 -13.828  0.2195E+01  0.1095E+02
 -13.818  0.2164E+01  0.1097E+02
 -13.808  0.2133E+01  0.1099E+02
 -13.798  0.2101E+01  0.1101E+02
 -13.788  0.2070E+01  0.1103E+02
 -13.778  0.2039E+01  0.1105E+02
 -13.768  0.2008E+01  0.1107E+02
 -13.758  0.1978E+01  0.1109E+02
 -13.748  0.1947E+01  0.1111E+02
 -13.738  0.1917E+01  0.1113E+02
 -13.728  0.1887E+01  0.1115E+02
 -13.718  0.1857E+01  0.1117E+02
 -13.708  0.1827E+01  0.1118E+02
 -13.698  0.1798E+01  0.1120E+02
 -13.688  0.1768E+01  0.1122E+02
 -13.678  0.1739E+01  0.1124E+02
 -13.668  0.1710E+01  0.1125E+02
 -13.658  0.1682E+01  0.1127E+02
 -13.648  0.1653E+01  0.1129E+02
 -13.638  0.1625E+01  0.1130E+02
 -13.628  0.1597E+01  0.1132E+02
 -13.618  0.1569E+01  0.1134E+02
 -13.608  0.1542E+01  0.1135E+02
 -13.598  0.1514E+01  0.1137E+02
 -13.588  0.1487E+01  0.1138E+02
 -13.578  0.1461E+01  0.1140E+02
 -13.568  0.1434E+01  0.1141E+02
 -13.558  0.1408E+01  0.1142E+02
 -13.548  0.1382E+01  0.1144E+02
 -13.538  0.1356E+01  0.1145E+02
 -13.528  0.1331E+01  0.1147E+02
 -13.518  0.1306E+01  0.1148E+02
 -13.508  0.1281E+01  0.1149E+02
 -13.498  0.1256E+01  0.1150E+02
 -13.488  0.1232E+01  0.1152E+02
 -13.478  0.1208E+01  0.1153E+02
 -13.468  0.1184E+01  0.1154E+02
 -13.458  0.1160E+01  0.1155E+02
 -13.448  0.1137E+01  0.1156E+02
 -13.438  0.1114E+01  0.1157E+02
 -13.428  0.1091E+01  0.1158E+02
 -13.418  0.1069E+01  0.1160E+02
 -13.408  0.1047E+01  0.1161E+02
 -13.398  0.1025E+01  0.1162E+02
 -13.388  0.1004E+01  0.1163E+02
 -13.378  0.9826E+00  0.1164E+02
 -13.368  0.9617E+00  0.1165E+02
 -13.358  0.9412E+00  0.1166E+02
 -13.348  0.9208E+00  0.1166E+02
 -13.338  0.9008E+00  0.1167E+02
 -13.328  0.8811E+00  0.1168E+02
 -13.318  0.8617E+00  0.1169E+02
 -13.308  0.8426E+00  0.1170E+02
 -13.298  0.8237E+00  0.1171E+02
 -13.288  0.8052E+00  0.1172E+02
 -13.278  0.7870E+00  0.1172E+02
 -13.268  0.7690E+00  0.1173E+02
 -13.258  0.7513E+00  0.1174E+02
 -13.248  0.7339E+00  0.1175E+02
 -13.238  0.7168E+00  0.1175E+02
 -13.228  0.7000E+00  0.1176E+02
 -13.218  0.6835E+00  0.1177E+02
 -13.208  0.6673E+00  0.1177E+02
 -13.198  0.6513E+00  0.1178E+02
 -13.188  0.6356E+00  0.1179E+02
 -13.178  0.6202E+00  0.1179E+02
 -13.168  0.6051E+00  0.1180E+02
 -13.158  0.5902E+00  0.1180E+02
 -13.148  0.5756E+00  0.1181E+02
 -13.138  0.5613E+00  0.1182E+02
 -13.128  0.5473E+00  0.1182E+02
 -13.118  0.5335E+00  0.1183E+02
 -13.108  0.5200E+00  0.1183E+02
 -13.098  0.5067E+00  0.1184E+02
 -13.088  0.4937E+00  0.1184E+02
 -13.078  0.4810E+00  0.1185E+02
 -13.068  0.4685E+00  0.1185E+02
 -13.058  0.4562E+00  0.1186E+02
 -13.048  0.4442E+00  0.1186E+02
 -13.038  0.4325E+00  0.1186E+02
 -13.028  0.4210E+00  0.1187E+02
 -13.018  0.4097E+00  0.1187E+02
 -13.008  0.3987E+00  0.1188E+02
 -12.998  0.3879E+00  0.1188E+02
 -12.988  0.3773E+00  0.1188E+02
 -12.978  0.3670E+00  0.1189E+02
 -12.968  0.3569E+00  0.1189E+02
 -12.958  0.3470E+00  0.1190E+02
 -12.948  0.3373E+00  0.1190E+02
 -12.938  0.3278E+00  0.1190E+02
 -12.928  0.3186E+00  0.1191E+02
 -12.918  0.3096E+00  0.1191E+02
 -12.908  0.3007E+00  0.1191E+02
 -12.898  0.2921E+00  0.1191E+02
 -12.888  0.2837E+00  0.1192E+02
 -12.878  0.2755E+00  0.1192E+02
 -12.868  0.2674E+00  0.1192E+02
 -12.858  0.2596E+00  0.1193E+02
 -12.848  0.2520E+00  0.1193E+02
 -12.838  0.2445E+00  0.1193E+02
 -12.828  0.2372E+00  0.1193E+02
 -12.818  0.2301E+00  0.1193E+02
 -12.808  0.2232E+00  0.1194E+02
 -12.798  0.2164E+00  0.1194E+02
 -12.788  0.2098E+00  0.1194E+02
 -12.778  0.2034E+00  0.1194E+02
 -12.768  0.1972E+00  0.1195E+02
 -12.758  0.1911E+00  0.1195E+02
 -12.748  0.1852E+00  0.1195E+02
 -12.738  0.1794E+00  0.1195E+02
 -12.728  0.1737E+00  0.1195E+02
 -12.718  0.1683E+00  0.1195E+02
 -12.708  0.1629E+00  0.1196E+02
 -12.698  0.1577E+00  0.1196E+02
 -12.688  0.1527E+00  0.1196E+02
 -12.678  0.1478E+00  0.1196E+02
 -12.668  0.1430E+00  0.1196E+02
 -12.658  0.1384E+00  0.1196E+02
 -12.648  0.1338E+00  0.1196E+02
 -12.638  0.1295E+00  0.1197E+02
 -12.628  0.1252E+00  0.1197E+02
 -12.618  0.1210E+00  0.1197E+02
 -12.608  0.1170E+00  0.1197E+02
 -12.598  0.1131E+00  0.1197E+02
 -12.588  0.1093E+00  0.1197E+02
 -12.578  0.1056E+00  0.1197E+02
 -12.568  0.1020E+00  0.1197E+02
 -12.558  0.9855E-01  0.1198E+02
 -12.548  0.9518E-01  0.1198E+02
 -12.538  0.9191E-01  0.1198E+02
 -12.528  0.8873E-01  0.1198E+02
 -12.518  0.8565E-01  0.1198E+02
 -12.508  0.8266E-01  0.1198E+02
 -12.498  0.7977E-01  0.1198E+02
 -12.488  0.7696E-01  0.1198E+02
 -12.478  0.7424E-01  0.1198E+02
 -12.468  0.7160E-01  0.1198E+02
 -12.458  0.6905E-01  0.1198E+02
 -12.448  0.6657E-01  0.1198E+02
 -12.438  0.6418E-01  0.1198E+02
 -12.428  0.6186E-01  0.1199E+02
 -12.418  0.5961E-01  0.1199E+02
 -12.408  0.5744E-01  0.1199E+02
 -12.398  0.5533E-01  0.1199E+02
 -12.388  0.5330E-01  0.1199E+02
 -12.378  0.5133E-01  0.1199E+02
 -12.368  0.4942E-01  0.1199E+02
 -12.358  0.4758E-01  0.1199E+02
 -12.348  0.4580E-01  0.1199E+02
 -12.338  0.4408E-01  0.1199E+02
 -12.328  0.4242E-01  0.1199E+02
 -12.318  0.4081E-01  0.1199E+02
 -12.308  0.3925E-01  0.1199E+02
 -12.298  0.3775E-01  0.1199E+02
 -12.288  0.3631E-01  0.1199E+02
 -12.278  0.3491E-01  0.1199E+02
 -12.268  0.3356E-01  0.1199E+02
 -12.258  0.3225E-01  0.1199E+02
 -12.248  0.3099E-01  0.1199E+02
 -12.238  0.2978E-01  0.1199E+02
 -12.228  0.2861E-01  0.1199E+02
 -12.218  0.2748E-01  0.1199E+02
 -12.208  0.2639E-01  0.1199E+02
 -12.198  0.2534E-01  0.1199E+02
 -12.188  0.2432E-01  0.1199E+02
 -12.178  0.2335E-01  0.1199E+02
 -12.168  0.2241E-01  0.1200E+02
 -12.158  0.2150E-01  0.1200E+02
 -12.148  0.2063E-01  0.1200E+02
 -12.138  0.1979E-01  0.1200E+02
 -12.128  0.1898E-01  0.1200E+02
 -12.118  0.1820E-01  0.1200E+02
 -12.108  0.1745E-01  0.1200E+02
 -12.098  0.1672E-01  0.1200E+02
 -12.088  0.1603E-01  0.1200E+02
 -12.078  0.1536E-01  0.1200E+02
 -12.068  0.1472E-01  0.1200E+02
 -12.058  0.1410E-01  0.1200E+02
 -12.048  0.1350E-01  0.1200E+02
 -12.038  0.1293E-01  0.1200E+02
 -12.028  0.1238E-01  0.1200E+02
 -12.018  0.1185E-01  0.1200E+02
 -12.008  0.1134E-01  0.1200E+02
 -11.998  0.1086E-01  0.1200E+02
 -11.988  0.1039E-01  0.1200E+02
 -11.978  0.9937E-02  0.1200E+02
 -11.968  0.9505E-02  0.1200E+02
 -11.958  0.9090E-02  0.1200E+02
 -11.948  0.8692E-02  0.1200E+02
 -11.938  0.8310E-02  0.1200E+02
 -11.928  0.7943E-02  0.1200E+02
 -11.918  0.7591E-02  0.1200E+02
 -11.908  0.7254E-02  0.1200E+02
 -11.898  0.6930E-02  0.1200E+02
 -11.888  0.6620E-02  0.1200E+02
 -11.878  0.6323E-02  0.1200E+02
 -11.868  0.6038E-02  0.1200E+02
 -11.858  0.5765E-02  0.1200E+02
 -11.848  0.5503E-02  0.1200E+02
 -11.838  0.5252E-02  0.1200E+02
 -11.828  0.5012E-02  0.1200E+02
 -11.818  0.4782E-02  0.1200E+02
 -11.808  0.4562E-02  0.1200E+02
 -11.798  0.4351E-02  0.1200E+02
 -11.788  0.4150E-02  0.1200E+02
 -11.778  0.3957E-02  0.1200E+02
 -11.768  0.3772E-02  0.1200E+02
 -11.758  0.3595E-02  0.1200E+02
 -11.748  0.3426E-02  0.1200E+02
 -11.738  0.3265E-02  0.1200E+02
 -11.728  0.3110E-02  0.1200E+02
 -11.718  0.2963E-02  0.1200E+02
 -11.708  0.2822E-02  0.1200E+02
 -11.698  0.2687E-02  0.1200E+02
 -11.688  0.2558E-02  0.1200E+02
 -11.678  0.2435E-02  0.1200E+02
 -11.668  0.2317E-02  0.1200E+02
 -11.658  0.2205E-02  0.1200E+02
 -11.648  0.2098E-02  0.1200E+02
 -11.638  0.1996E-02  0.1200E+02
 -11.628  0.1898E-02  0.1200E+02
 -11.618  0.1805E-02  0.1200E+02
 -11.608  0.1716E-02  0.1200E+02
 -11.598  0.1632E-02  0.1200E+02
 -11.588  0.1551E-02  0.1200E+02
 -11.578  0.1474E-02  0.1200E+02
 -11.568  0.1400E-02  0.1200E+02
 -11.558  0.1330E-02  0.1200E+02
 -11.548  0.1263E-02  0.1200E+02
 -11.538  0.1200E-02  0.1200E+02
 -11.528  0.1139E-02  0.1200E+02
 -11.518  0.1082E-02  0.1200E+02
 -11.508  0.1027E-02  0.1200E+02
 -11.498  0.9743E-03  0.1200E+02
 -11.488  0.9245E-03  0.1200E+02
 -11.478  0.8771E-03  0.1200E+02
 -11.468  0.8320E-03  0.1200E+02
 -11.458  0.7891E-03  0.1200E+02
 -11.448  0.7482E-03  0.1200E+02
 -11.438  0.7094E-03  0.1200E+02
 -11.428  0.6725E-03  0.1200E+02
 -11.418  0.6373E-03  0.1200E+02
 -11.408  0.6039E-03  0.1200E+02
 -11.398  0.5722E-03  0.1200E+02
 -11.388  0.5420E-03  0.1200E+02
 -11.378  0.5134E-03  0.1200E+02
 -11.368  0.4862E-03  0.1200E+02
 -11.358  0.4603E-03  0.1200E+02
 -11.348  0.4358E-03  0.1200E+02
 -11.338  0.4124E-03  0.1200E+02
 -11.328  0.3903E-03  0.1200E+02
 -11.318  0.3693E-03  0.1200E+02
 -11.308  0.3494E-03  0.1200E+02
 -11.298  0.3305E-03  0.1200E+02
 -11.288  0.3125E-03  0.1200E+02
 -11.278  0.2955E-03  0.1200E+02
 -11.268  0.2794E-03  0.1200E+02
 -11.258  0.2641E-03  0.1200E+02
 -11.248  0.2496E-03  0.1200E+02
 -11.238  0.2358E-03  0.1200E+02
 -11.228  0.2228E-03  0.1200E+02
 -11.218  0.2104E-03  0.1200E+02
 -11.208  0.1988E-03  0.1200E+02
 -11.198  0.1877E-03  0.1200E+02
 -11.188  0.1772E-03  0.1200E+02
 -11.178  0.1673E-03  0.1200E+02
 -11.168  0.1579E-03  0.1200E+02
 -11.158  0.1490E-03  0.1200E+02
 -11.148  0.1406E-03  0.1200E+02
 -11.138  0.1326E-03  0.1200E+02
 -11.128  0.1251E-03  0.1200E+02
 -11.118  0.1179E-03  0.1200E+02
 -11.108  0.1112E-03  0.1200E+02
 -11.098  0.1048E-03  0.1200E+02
 -11.088  0.9880E-04  0.1200E+02
 -11.078  0.9311E-04  0.1200E+02
 -11.068  0.8773E-04  0.1200E+02
 -11.058  0.8265E-04  0.1200E+02
 -11.048  0.7785E-04  0.1200E+02
 -11.038  0.7331E-04  0.1200E+02
 -11.028  0.6903E-04  0.1200E+02
 -11.018  0.6499E-04  0.1200E+02
 -11.008  0.6117E-04  0.1200E+02
 -10.998  0.5757E-04  0.1200E+02
 -10.988  0.5418E-04  0.1200E+02
 -10.978  0.5097E-04  0.1200E+02
 -10.968  0.4795E-04  0.1200E+02
 -10.958  0.4509E-04  0.1200E+02
 -10.948  0.4240E-04  0.1200E+02
 -10.938  0.3987E-04  0.1200E+02
 -10.928  0.3748E-04  0.1200E+02
 -10.918  0.3523E-04  0.1200E+02
 -10.908  0.3310E-04  0.1200E+02
 -10.898  0.3110E-04  0.1200E+02
 -10.888  0.2922E-04  0.1200E+02
 -10.878  0.2745E-04  0.1200E+02
 -10.868  0.2578E-04  0.1200E+02
 -10.858  0.2421E-04  0.1200E+02
 -10.848  0.2273E-04  0.1200E+02
 -10.838  0.2133E-04  0.1200E+02
 -10.828  0.2002E-04  0.1200E+02
 -10.818  0.1879E-04  0.1200E+02
 -10.808  0.1763E-04  0.1200E+02
 -10.798  0.1654E-04  0.1200E+02
 -10.788  0.1552E-04  0.1200E+02
 -10.778  0.1455E-04  0.1200E+02
 -10.768  0.1365E-04  0.1200E+02
 -10.758  0.1280E-04  0.1200E+02
 -10.748  0.1200E-04  0.1200E+02
 -10.738  0.1125E-04  0.1200E+02
 -10.728  0.1055E-04  0.1200E+02
 -10.718  0.9884E-05  0.1200E+02
 -10.708  0.9264E-05  0.1200E+02
 -10.698  0.8683E-05  0.1200E+02
 -10.688  0.8137E-05  0.1200E+02
 -10.678  0.7626E-05  0.1200E+02
 -10.668  0.7146E-05  0.1200E+02
 -10.658  0.6697E-05  0.1200E+02
 -10.648  0.6277E-05  0.1200E+02
 -10.638  0.5883E-05  0.1200E+02
 -10.628  0.5515E-05  0.1200E+02
 -10.618  0.5170E-05  0.1200E+02
 -10.608  0.4848E-05  0.1200E+02
 -10.598  0.4547E-05  0.1200E+02
 -10.588  0.4266E-05  0.1200E+02
 -10.578  0.4004E-05  0.1200E+02
 -10.568  0.3760E-05  0.1200E+02
 -10.558  0.3533E-05  0.1200E+02
 -10.548  0.3321E-05  0.1200E+02
 -10.538  0.3124E-05  0.1200E+02
 -10.528  0.2941E-05  0.1200E+02
 -10.518  0.2772E-05  0.1200E+02
 -10.508  0.2615E-05  0.1200E+02
 -10.498  0.2471E-05  0.1200E+02
 -10.488  0.2337E-05  0.1200E+02
 -10.478  0.2215E-05  0.1200E+02
 -10.468  0.2102E-05  0.1200E+02
 -10.458  0.2000E-05  0.1200E+02
 -10.448  0.1906E-05  0.1200E+02
 -10.438  0.1822E-05  0.1200E+02
 -10.428  0.1746E-05  0.1200E+02
 -10.418  0.1678E-05  0.1200E+02
 -10.408  0.1618E-05  0.1200E+02
 -10.398  0.1565E-05  0.1200E+02
 -10.388  0.1520E-05  0.1200E+02
 -10.378  0.1481E-05  0.1200E+02
 -10.368  0.1450E-05  0.1200E+02
 -10.358  0.1425E-05  0.1200E+02
 -10.348  0.1407E-05  0.1200E+02
 -10.338  0.1395E-05  0.1200E+02
 -10.328  0.1389E-05  0.1200E+02
 -10.318  0.1390E-05  0.1200E+02
 -10.308  0.1397E-05  0.1200E+02
 -10.298  0.1410E-05  0.1200E+02
 -10.288  0.1429E-05  0.1200E+02
 -10.278  0.1455E-05  0.1200E+02
 -10.268  0.1486E-05  0.1200E+02
 -10.258  0.1524E-05  0.1200E+02
 -10.248  0.1569E-05  0.1200E+02
 -10.238  0.1620E-05  0.1200E+02
 -10.228  0.1677E-05  0.1200E+02
 -10.218  0.1742E-05  0.1200E+02
 -10.208  0.1813E-05  0.1200E+02
 -10.198  0.1892E-05  0.1200E+02
 -10.188  0.1978E-05  0.1200E+02
 -10.178  0.2072E-05  0.1200E+02
 -10.168  0.2174E-05  0.1200E+02
 -10.158  0.2285E-05  0.1200E+02
 -10.148  0.2404E-05  0.1200E+02
 -10.138  0.2532E-05  0.1200E+02
 -10.128  0.2669E-05  0.1200E+02
 -10.118  0.2817E-05  0.1200E+02
 -10.108  0.2975E-05  0.1200E+02
 -10.098  0.3144E-05  0.1200E+02
 -10.088  0.3324E-05  0.1200E+02
 -10.078  0.3516E-05  0.1200E+02
 -10.068  0.3721E-05  0.1200E+02
 -10.058  0.3939E-05  0.1200E+02
 -10.048  0.4171E-05  0.1200E+02
 -10.038  0.4417E-05  0.1200E+02
 -10.028  0.4679E-05  0.1200E+02
 -10.018  0.4957E-05  0.1200E+02
 -10.008  0.5252E-05  0.1200E+02
  -9.998  0.5565E-05  0.1200E+02
  -9.988  0.5896E-05  0.1200E+02
  -9.978  0.6248E-05  0.1200E+02
  -9.968  0.6620E-05  0.1200E+02
  -9.958  0.7015E-05  0.1200E+02
  -9.948  0.7433E-05  0.1200E+02
  -9.938  0.7875E-05  0.1200E+02
  -9.928  0.8343E-05  0.1200E+02
  -9.918  0.8838E-05  0.1200E+02
  -9.908  0.9361E-05  0.1200E+02
  -9.898  0.9915E-05  0.1200E+02
  -9.888  0.1050E-04  0.1200E+02
  -9.878  0.1112E-04  0.1200E+02
  -9.868  0.1177E-04  0.1200E+02
  -9.858  0.1246E-04  0.1200E+02
  -9.848  0.1319E-04  0.1200E+02
  -9.838  0.1396E-04  0.1200E+02
  -9.828  0.1478E-04  0.1200E+02
  -9.818  0.1564E-04  0.1200E+02
  -9.808  0.1654E-04  0.1200E+02
  -9.798  0.1750E-04  0.1200E+02
  -9.788  0.1851E-04  0.1200E+02
  -9.778  0.1957E-04  0.1200E+02
  -9.768  0.2070E-04  0.1200E+02
  -9.758  0.2188E-04  0.1200E+02
  -9.748  0.2313E-04  0.1200E+02
  -9.738  0.2445E-04  0.1200E+02
  -9.728  0.2584E-04  0.1200E+02
  -9.718  0.2730E-04  0.1200E+02
  -9.708  0.2884E-04  0.1200E+02
  -9.698  0.3047E-04  0.1200E+02
  -9.688  0.3218E-04  0.1200E+02
  -9.678  0.3398E-04  0.1200E+02
  -9.668  0.3588E-04  0.1200E+02
  -9.658  0.3787E-04  0.1200E+02
  -9.648  0.3998E-04  0.1200E+02
  -9.638  0.4219E-04  0.1200E+02
  -9.628  0.4452E-04  0.1200E+02
  -9.618  0.4697E-04  0.1200E+02
  -9.608  0.4955E-04  0.1200E+02
  -9.598  0.5227E-04  0.1200E+02
  -9.588  0.5512E-04  0.1200E+02
  -9.578  0.5812E-04  0.1200E+02
  -9.568  0.6128E-04  0.1200E+02
  -9.558  0.6459E-04  0.1200E+02
  -9.548  0.6808E-04  0.1200E+02
  -9.538  0.7174E-04  0.1200E+02
  -9.528  0.7559E-04  0.1200E+02
  -9.518  0.7963E-04  0.1200E+02
  -9.508  0.8388E-04  0.1200E+02
  -9.498  0.8834E-04  0.1200E+02
  -9.488  0.9303E-04  0.1200E+02
  -9.478  0.9795E-04  0.1200E+02
  -9.468  0.1031E-03  0.1200E+02
  -9.458  0.1085E-03  0.1200E+02
  -9.448  0.1142E-03  0.1200E+02
  -9.438  0.1202E-03  0.1200E+02
  -9.428  0.1264E-03  0.1200E+02
  -9.418  0.1330E-03  0.1200E+02
  -9.408  0.1399E-03  0.1200E+02
  -9.398  0.1471E-03  0.1200E+02
  -9.388  0.1547E-03  0.1200E+02
  -9.378  0.1626E-03  0.1200E+02
  -9.368  0.1710E-03  0.1200E+02
  -9.358  0.1797E-03  0.1200E+02
  -9.348  0.1888E-03  0.1200E+02
  -9.338  0.1984E-03  0.1200E+02
  -9.328  0.2084E-03  0.1200E+02
  -9.318  0.2189E-03  0.1200E+02
  -9.308  0.2299E-03  0.1200E+02
  -9.298  0.2414E-03  0.1200E+02
  -9.288  0.2535E-03  0.1200E+02
  -9.278  0.2661E-03  0.1200E+02
  -9.268  0.2793E-03  0.1200E+02
  -9.258  0.2931E-03  0.1200E+02
  -9.248  0.3075E-03  0.1200E+02
  -9.238  0.3227E-03  0.1200E+02
  -9.228  0.3385E-03  0.1200E+02
  -9.218  0.3550E-03  0.1200E+02
  -9.208  0.3723E-03  0.1200E+02
  -9.198  0.3904E-03  0.1200E+02
  -9.188  0.4092E-03  0.1200E+02
  -9.178  0.4290E-03  0.1200E+02
  -9.168  0.4496E-03  0.1200E+02
  -9.158  0.4712E-03  0.1200E+02
  -9.148  0.4937E-03  0.1200E+02
  -9.138  0.5172E-03  0.1200E+02
  -9.128  0.5417E-03  0.1200E+02
  -9.118  0.5673E-03  0.1200E+02
  -9.108  0.5941E-03  0.1200E+02
  -9.098  0.6220E-03  0.1200E+02
  -9.088  0.6512E-03  0.1200E+02
  -9.078  0.6816E-03  0.1200E+02
  -9.068  0.7133E-03  0.1200E+02
  -9.058  0.7464E-03  0.1200E+02
  -9.048  0.7810E-03  0.1200E+02
  -9.038  0.8170E-03  0.1200E+02
  -9.028  0.8545E-03  0.1200E+02
  -9.018  0.8936E-03  0.1200E+02
  -9.008  0.9344E-03  0.1200E+02
  -8.998  0.9769E-03  0.1200E+02
  -8.988  0.1021E-02  0.1200E+02
  -8.978  0.1067E-02  0.1200E+02
  -8.968  0.1115E-02  0.1200E+02
  -8.958  0.1166E-02  0.1200E+02
  -8.948  0.1218E-02  0.1200E+02
  -8.938  0.1272E-02  0.1200E+02
  -8.928  0.1329E-02  0.1200E+02
  -8.918  0.1387E-02  0.1200E+02
  -8.908  0.1449E-02  0.1200E+02
  -8.898  0.1512E-02  0.1200E+02
  -8.888  0.1579E-02  0.1200E+02
  -8.878  0.1648E-02  0.1200E+02
  -8.868  0.1719E-02  0.1200E+02
  -8.858  0.1794E-02  0.1200E+02
  -8.848  0.1872E-02  0.1200E+02
  -8.838  0.1952E-02  0.1200E+02
  -8.828  0.2036E-02  0.1200E+02
  -8.818  0.2123E-02  0.1200E+02
  -8.808  0.2214E-02  0.1200E+02
  -8.798  0.2308E-02  0.1200E+02
  -8.788  0.2406E-02  0.1200E+02
  -8.778  0.2507E-02  0.1200E+02
  -8.768  0.2612E-02  0.1200E+02
  -8.758  0.2722E-02  0.1200E+02
  -8.748  0.2836E-02  0.1200E+02
  -8.738  0.2954E-02  0.1200E+02
  -8.728  0.3076E-02  0.1200E+02
  -8.718  0.3203E-02  0.1200E+02
  -8.708  0.3335E-02  0.1200E+02
  -8.698  0.3472E-02  0.1200E+02
  -8.688  0.3614E-02  0.1200E+02
  -8.678  0.3761E-02  0.1200E+02
  -8.668  0.3913E-02  0.1200E+02
  -8.658  0.4072E-02  0.1200E+02
  -8.648  0.4236E-02  0.1200E+02
  -8.638  0.4406E-02  0.1200E+02
  -8.628  0.4582E-02  0.1200E+02
  -8.618  0.4764E-02  0.1200E+02
  -8.608  0.4953E-02  0.1200E+02
  -8.598  0.5149E-02  0.1200E+02
  -8.588  0.5352E-02  0.1200E+02
  -8.578  0.5562E-02  0.1200E+02
  -8.568  0.5780E-02  0.1200E+02
  -8.558  0.6005E-02  0.1200E+02
  -8.548  0.6238E-02  0.1200E+02
  -8.538  0.6479E-02  0.1200E+02
  -8.528  0.6729E-02  0.1200E+02
  -8.518  0.6987E-02  0.1200E+02
  -8.508  0.7254E-02  0.1200E+02
  -8.498  0.7530E-02  0.1200E+02
  -8.488  0.7816E-02  0.1200E+02
  -8.478  0.8111E-02  0.1200E+02
  -8.468  0.8417E-02  0.1200E+02
  -8.458  0.8732E-02  0.1200E+02
  -8.448  0.9059E-02  0.1200E+02
  -8.438  0.9396E-02  0.1200E+02
  -8.428  0.9744E-02  0.1200E+02
  -8.418  0.1010E-01  0.1200E+02
  -8.408  0.1048E-01  0.1200E+02
  -8.398  0.1086E-01  0.1200E+02
  -8.388  0.1126E-01  0.1200E+02
  -8.378  0.1166E-01  0.1200E+02
  -8.368  0.1209E-01  0.1200E+02
  -8.358  0.1252E-01  0.1200E+02
  -8.348  0.1297E-01  0.1200E+02
  -8.338  0.1344E-01  0.1200E+02
  -8.328  0.1391E-01  0.1200E+02
  -8.318  0.1441E-01  0.1200E+02
  -8.308  0.1492E-01  0.1200E+02
  -8.298  0.1544E-01  0.1200E+02
  -8.288  0.1598E-01  0.1200E+02
  -8.278  0.1654E-01  0.1200E+02
  -8.268  0.1712E-01  0.1200E+02
  -8.258  0.1771E-01  0.1200E+02
  -8.248  0.1832E-01  0.1201E+02
  -8.238  0.1895E-01  0.1201E+02
  -8.228  0.1959E-01  0.1201E+02
  -8.218  0.2026E-01  0.1201E+02
  -8.208  0.2095E-01  0.1201E+02
  -8.198  0.2165E-01  0.1201E+02
  -8.188  0.2238E-01  0.1201E+02
  -8.178  0.2313E-01  0.1201E+02
  -8.168  0.2390E-01  0.1201E+02
  -8.158  0.2470E-01  0.1201E+02
  -8.148  0.2551E-01  0.1201E+02
  -8.138  0.2635E-01  0.1201E+02
  -8.128  0.2721E-01  0.1201E+02
  -8.118  0.2810E-01  0.1201E+02
  -8.108  0.2901E-01  0.1201E+02
  -8.098  0.2995E-01  0.1201E+02
  -8.088  0.3091E-01  0.1201E+02
  -8.078  0.3190E-01  0.1201E+02
  -8.068  0.3292E-01  0.1201E+02
  -8.058  0.3397E-01  0.1201E+02
  -8.048  0.3504E-01  0.1201E+02
  -8.038  0.3614E-01  0.1201E+02
  -8.028  0.3728E-01  0.1201E+02
  -8.018  0.3844E-01  0.1201E+02
  -8.008  0.3963E-01  0.1201E+02
  -7.998  0.4086E-01  0.1201E+02
  -7.988  0.4211E-01  0.1201E+02
  -7.978  0.4340E-01  0.1201E+02
  -7.968  0.4472E-01  0.1201E+02
  -7.958  0.4608E-01  0.1201E+02
  -7.948  0.4747E-01  0.1201E+02
  -7.938  0.4890E-01  0.1201E+02
  -7.928  0.5036E-01  0.1202E+02
  -7.918  0.5186E-01  0.1202E+02
  -7.908  0.5340E-01  0.1202E+02
  -7.898  0.5497E-01  0.1202E+02
  -7.888  0.5658E-01  0.1202E+02
  -7.878  0.5824E-01  0.1202E+02
  -7.868  0.5993E-01  0.1202E+02
  -7.858  0.6166E-01  0.1202E+02
  -7.848  0.6344E-01  0.1202E+02
  -7.838  0.6525E-01  0.1202E+02
  -7.828  0.6711E-01  0.1202E+02
  -7.818  0.6902E-01  0.1202E+02
  -7.808  0.7096E-01  0.1202E+02
  -7.798  0.7295E-01  0.1202E+02
  -7.788  0.7499E-01  0.1202E+02
  -7.778  0.7708E-01  0.1202E+02
  -7.768  0.7921E-01  0.1203E+02
  -7.758  0.8139E-01  0.1203E+02
  -7.748  0.8362E-01  0.1203E+02
  -7.738  0.8589E-01  0.1203E+02
  -7.728  0.8822E-01  0.1203E+02
  -7.718  0.9060E-01  0.1203E+02
  -7.708  0.9303E-01  0.1203E+02
  -7.698  0.9551E-01  0.1203E+02
  -7.688  0.9804E-01  0.1203E+02
  -7.678  0.1006E+00  0.1203E+02
  -7.668  0.1033E+00  0.1203E+02
  -7.658  0.1060E+00  0.1204E+02
  -7.648  0.1087E+00  0.1204E+02
  -7.638  0.1115E+00  0.1204E+02
  -7.628  0.1144E+00  0.1204E+02
  -7.618  0.1173E+00  0.1204E+02
  -7.608  0.1203E+00  0.1204E+02
  -7.598  0.1233E+00  0.1204E+02
  -7.588  0.1264E+00  0.1204E+02
  -7.578  0.1296E+00  0.1205E+02
  -7.568  0.1328E+00  0.1205E+02
  -7.558  0.1361E+00  0.1205E+02
  -7.548  0.1395E+00  0.1205E+02
  -7.538  0.1429E+00  0.1205E+02
  -7.528  0.1463E+00  0.1205E+02
  -7.518  0.1499E+00  0.1205E+02
  -7.508  0.1535E+00  0.1206E+02
  -7.498  0.1571E+00  0.1206E+02
  -7.488  0.1609E+00  0.1206E+02
  -7.478  0.1647E+00  0.1206E+02
  -7.468  0.1685E+00  0.1206E+02
  -7.458  0.1725E+00  0.1206E+02
  -7.448  0.1765E+00  0.1207E+02
  -7.438  0.1806E+00  0.1207E+02
  -7.428  0.1847E+00  0.1207E+02
  -7.418  0.1889E+00  0.1207E+02
  -7.408  0.1932E+00  0.1207E+02
  -7.398  0.1975E+00  0.1208E+02
  -7.388  0.2019E+00  0.1208E+02
  -7.378  0.2064E+00  0.1208E+02
  -7.368  0.2110E+00  0.1208E+02
  -7.358  0.2156E+00  0.1208E+02
  -7.348  0.2203E+00  0.1209E+02
  -7.338  0.2251E+00  0.1209E+02
  -7.328  0.2300E+00  0.1209E+02
  -7.318  0.2349E+00  0.1209E+02
  -7.308  0.2399E+00  0.1209E+02
  -7.298  0.2450E+00  0.1210E+02
  -7.288  0.2501E+00  0.1210E+02
  -7.278  0.2553E+00  0.1210E+02
  -7.268  0.2606E+00  0.1210E+02
  -7.258  0.2660E+00  0.1211E+02
  -7.248  0.2714E+00  0.1211E+02
  -7.238  0.2769E+00  0.1211E+02
  -7.228  0.2825E+00  0.1212E+02
  -7.218  0.2882E+00  0.1212E+02
  -7.208  0.2939E+00  0.1212E+02
  -7.198  0.2998E+00  0.1212E+02
  -7.188  0.3056E+00  0.1213E+02
  -7.178  0.3116E+00  0.1213E+02
  -7.168  0.3176E+00  0.1213E+02
  -7.158  0.3238E+00  0.1214E+02
  -7.148  0.3299E+00  0.1214E+02
  -7.138  0.3362E+00  0.1214E+02
  -7.128  0.3425E+00  0.1215E+02
  -7.118  0.3489E+00  0.1215E+02
  -7.108  0.3554E+00  0.1215E+02
  -7.098  0.3620E+00  0.1216E+02
  -7.088  0.3686E+00  0.1216E+02
  -7.078  0.3753E+00  0.1217E+02
  -7.068  0.3821E+00  0.1217E+02
  -7.058  0.3889E+00  0.1217E+02
  -7.048  0.3958E+00  0.1218E+02
  -7.038  0.4028E+00  0.1218E+02
  -7.028  0.4098E+00  0.1219E+02
  -7.018  0.4169E+00  0.1219E+02
  -7.008  0.4241E+00  0.1219E+02
  -6.998  0.4314E+00  0.1220E+02
  -6.988  0.4387E+00  0.1220E+02
  -6.978  0.4461E+00  0.1221E+02
  -6.968  0.4535E+00  0.1221E+02
  -6.958  0.4611E+00  0.1222E+02
  -6.948  0.4686E+00  0.1222E+02
  -6.938  0.4763E+00  0.1223E+02
  -6.928  0.4840E+00  0.1223E+02
  -6.918  0.4918E+00  0.1224E+02
  -6.908  0.4996E+00  0.1224E+02
  -6.898  0.5075E+00  0.1225E+02
  -6.888  0.5154E+00  0.1225E+02
  -6.878  0.5234E+00  0.1226E+02
  -6.868  0.5315E+00  0.1226E+02
  -6.858  0.5396E+00  0.1227E+02
  -6.848  0.5478E+00  0.1227E+02
  -6.838  0.5560E+00  0.1228E+02
  -6.828  0.5642E+00  0.1228E+02
  -6.818  0.5726E+00  0.1229E+02
  -6.808  0.5809E+00  0.1229E+02
  -6.798  0.5894E+00  0.1230E+02
  -6.788  0.5978E+00  0.1231E+02
  -6.778  0.6063E+00  0.1231E+02
  -6.768  0.6149E+00  0.1232E+02
  -6.758  0.6235E+00  0.1232E+02
  -6.748  0.6321E+00  0.1233E+02
  -6.738  0.6408E+00  0.1234E+02
  -6.728  0.6495E+00  0.1234E+02
  -6.718  0.6583E+00  0.1235E+02
  -6.708  0.6671E+00  0.1236E+02
  -6.698  0.6759E+00  0.1236E+02
  -6.688  0.6848E+00  0.1237E+02
  -6.678  0.6936E+00  0.1238E+02
  -6.668  0.7026E+00  0.1239E+02
  -6.658  0.7115E+00  0.1239E+02
  -6.648  0.7205E+00  0.1240E+02
  -6.638  0.7295E+00  0.1241E+02
  -6.628  0.7385E+00  0.1241E+02
  -6.618  0.7475E+00  0.1242E+02
  -6.608  0.7566E+00  0.1243E+02
  -6.598  0.7656E+00  0.1244E+02
  -6.588  0.7747E+00  0.1244E+02
  -6.578  0.7838E+00  0.1245E+02
  -6.568  0.7929E+00  0.1246E+02
  -6.558  0.8021E+00  0.1247E+02
  -6.548  0.8112E+00  0.1248E+02
  -6.538  0.8204E+00  0.1248E+02
  -6.528  0.8295E+00  0.1249E+02
  -6.518  0.8386E+00  0.1250E+02
  -6.508  0.8478E+00  0.1251E+02
  -6.498  0.8570E+00  0.1252E+02
  -6.488  0.8661E+00  0.1253E+02
  -6.478  0.8753E+00  0.1254E+02
  -6.468  0.8844E+00  0.1254E+02
  -6.458  0.8935E+00  0.1255E+02
  -6.448  0.9027E+00  0.1256E+02
  -6.438  0.9118E+00  0.1257E+02
  -6.428  0.9209E+00  0.1258E+02
  -6.418  0.9300E+00  0.1259E+02
  -6.408  0.9390E+00  0.1260E+02
  -6.398  0.9481E+00  0.1261E+02
  -6.388  0.9571E+00  0.1262E+02
  -6.378  0.9661E+00  0.1263E+02
  -6.368  0.9751E+00  0.1264E+02
  -6.358  0.9841E+00  0.1265E+02
  -6.348  0.9930E+00  0.1266E+02
  -6.338  0.1002E+01  0.1267E+02
  -6.328  0.1011E+01  0.1268E+02
  -6.318  0.1020E+01  0.1269E+02
  -6.308  0.1028E+01  0.1270E+02
  -6.298  0.1037E+01  0.1271E+02
  -6.288  0.1046E+01  0.1272E+02
  -6.278  0.1055E+01  0.1273E+02
  -6.268  0.1063E+01  0.1274E+02
  -6.258  0.1072E+01  0.1275E+02
  -6.248  0.1081E+01  0.1276E+02
  -6.238  0.1089E+01  0.1277E+02
  -6.228  0.1098E+01  0.1278E+02
  -6.218  0.1106E+01  0.1279E+02
  -6.208  0.1115E+01  0.1281E+02
  -6.198  0.1123E+01  0.1282E+02
  -6.188  0.1131E+01  0.1283E+02
  -6.178  0.1139E+01  0.1284E+02
  -6.168  0.1148E+01  0.1285E+02
  -6.158  0.1156E+01  0.1286E+02
  -6.148  0.1164E+01  0.1287E+02
  -6.138  0.1172E+01  0.1289E+02
  -6.128  0.1180E+01  0.1290E+02
  -6.118  0.1188E+01  0.1291E+02
  -6.108  0.1196E+01  0.1292E+02
  -6.098  0.1203E+01  0.1293E+02
  -6.088  0.1211E+01  0.1295E+02
  -6.078  0.1219E+01  0.1296E+02
  -6.068  0.1226E+01  0.1297E+02
  -6.058  0.1234E+01  0.1298E+02
  -6.048  0.1241E+01  0.1300E+02
  -6.038  0.1249E+01  0.1301E+02
  -6.028  0.1256E+01  0.1302E+02
  -6.018  0.1263E+01  0.1303E+02
  -6.008  0.1271E+01  0.1305E+02
  -5.998  0.1278E+01  0.1306E+02
  -5.988  0.1285E+01  0.1307E+02
  -5.978  0.1292E+01  0.1308E+02
  -5.968  0.1299E+01  0.1310E+02
  -5.958  0.1306E+01  0.1311E+02
  -5.948  0.1312E+01  0.1312E+02
  -5.938  0.1319E+01  0.1314E+02
  -5.928  0.1326E+01  0.1315E+02
  -5.918  0.1332E+01  0.1316E+02
  -5.908  0.1339E+01  0.1318E+02
  -5.898  0.1345E+01  0.1319E+02
  -5.888  0.1351E+01  0.1320E+02
  -5.878  0.1358E+01  0.1322E+02
  -5.868  0.1364E+01  0.1323E+02
  -5.858  0.1370E+01  0.1324E+02
  -5.848  0.1376E+01  0.1326E+02
  -5.838  0.1382E+01  0.1327E+02
  -5.828  0.1388E+01  0.1329E+02
  -5.818  0.1394E+01  0.1330E+02
  -5.808  0.1400E+01  0.1331E+02
  -5.798  0.1405E+01  0.1333E+02
  -5.788  0.1411E+01  0.1334E+02
  -5.778  0.1416E+01  0.1336E+02
  -5.768  0.1422E+01  0.1337E+02
  -5.758  0.1427E+01  0.1338E+02
  -5.748  0.1432E+01  0.1340E+02
  -5.738  0.1438E+01  0.1341E+02
  -5.728  0.1443E+01  0.1343E+02
  -5.718  0.1448E+01  0.1344E+02
  -5.708  0.1453E+01  0.1346E+02
  -5.698  0.1458E+01  0.1347E+02
  -5.688  0.1463E+01  0.1349E+02
  -5.678  0.1468E+01  0.1350E+02
  -5.668  0.1472E+01  0.1352E+02
  -5.658  0.1477E+01  0.1353E+02
  -5.648  0.1482E+01  0.1354E+02
  -5.638  0.1486E+01  0.1356E+02
  -5.628  0.1491E+01  0.1357E+02
  -5.618  0.1495E+01  0.1359E+02
  -5.608  0.1500E+01  0.1360E+02
  -5.598  0.1504E+01  0.1362E+02
  -5.588  0.1508E+01  0.1363E+02
  -5.578  0.1512E+01  0.1365E+02
  -5.568  0.1516E+01  0.1367E+02
  -5.558  0.1521E+01  0.1368E+02
  -5.548  0.1525E+01  0.1370E+02
  -5.538  0.1528E+01  0.1371E+02
  -5.528  0.1532E+01  0.1373E+02
  -5.518  0.1536E+01  0.1374E+02
  -5.508  0.1540E+01  0.1376E+02
  -5.498  0.1544E+01  0.1377E+02
  -5.488  0.1547E+01  0.1379E+02
  -5.478  0.1551E+01  0.1380E+02
  -5.468  0.1555E+01  0.1382E+02
  -5.458  0.1558E+01  0.1383E+02
  -5.448  0.1562E+01  0.1385E+02
  -5.438  0.1565E+01  0.1387E+02
  -5.428  0.1569E+01  0.1388E+02
  -5.418  0.1572E+01  0.1390E+02
  -5.408  0.1575E+01  0.1391E+02
  -5.398  0.1578E+01  0.1393E+02
  -5.388  0.1582E+01  0.1394E+02
  -5.378  0.1585E+01  0.1396E+02
  -5.368  0.1588E+01  0.1398E+02
  -5.358  0.1591E+01  0.1399E+02
  -5.348  0.1594E+01  0.1401E+02
  -5.338  0.1597E+01  0.1402E+02
  -5.328  0.1600E+01  0.1404E+02
  -5.318  0.1603E+01  0.1406E+02
  -5.308  0.1606E+01  0.1407E+02
  -5.298  0.1609E+01  0.1409E+02
  -5.288  0.1612E+01  0.1410E+02
  -5.278  0.1615E+01  0.1412E+02
  -5.268  0.1618E+01  0.1414E+02
  -5.258  0.1621E+01  0.1415E+02
  -5.248  0.1624E+01  0.1417E+02
  -5.238  0.1627E+01  0.1419E+02
  -5.228  0.1629E+01  0.1420E+02
  -5.218  0.1632E+01  0.1422E+02
  -5.208  0.1635E+01  0.1423E+02
  -5.198  0.1638E+01  0.1425E+02
  -5.188  0.1640E+01  0.1427E+02
  -5.178  0.1643E+01  0.1428E+02
  -5.168  0.1646E+01  0.1430E+02
  -5.158  0.1649E+01  0.1432E+02
  -5.148  0.1651E+01  0.1433E+02
  -5.138  0.1654E+01  0.1435E+02
  -5.128  0.1657E+01  0.1437E+02
  -5.118  0.1660E+01  0.1438E+02
  -5.108  0.1662E+01  0.1440E+02
  -5.098  0.1665E+01  0.1442E+02
  -5.088  0.1668E+01  0.1443E+02
  -5.078  0.1670E+01  0.1445E+02
  -5.068  0.1673E+01  0.1447E+02
  -5.058  0.1676E+01  0.1448E+02
  -5.048  0.1679E+01  0.1450E+02
  -5.038  0.1681E+01  0.1452E+02
  -5.028  0.1684E+01  0.1453E+02
  -5.018  0.1687E+01  0.1455E+02
  -5.008  0.1690E+01  0.1457E+02
  -4.998  0.1693E+01  0.1458E+02
  -4.988  0.1695E+01  0.1460E+02
  -4.978  0.1698E+01  0.1462E+02
  -4.968  0.1701E+01  0.1464E+02
  -4.958  0.1704E+01  0.1465E+02
  -4.948  0.1707E+01  0.1467E+02
  -4.938  0.1710E+01  0.1469E+02
  -4.928  0.1713E+01  0.1470E+02
  -4.918  0.1716E+01  0.1472E+02
  -4.908  0.1719E+01  0.1474E+02
  -4.898  0.1722E+01  0.1475E+02
  -4.888  0.1725E+01  0.1477E+02
  -4.878  0.1728E+01  0.1479E+02
  -4.868  0.1731E+01  0.1481E+02
  -4.858  0.1735E+01  0.1482E+02
  -4.848  0.1738E+01  0.1484E+02
  -4.838  0.1741E+01  0.1486E+02
  -4.828  0.1744E+01  0.1488E+02
  -4.818  0.1748E+01  0.1489E+02
  -4.808  0.1751E+01  0.1491E+02
  -4.798  0.1755E+01  0.1493E+02
  -4.788  0.1758E+01  0.1495E+02
  -4.778  0.1762E+01  0.1496E+02
  -4.768  0.1765E+01  0.1498E+02
  -4.758  0.1769E+01  0.1500E+02
  -4.748  0.1773E+01  0.1502E+02
  -4.738  0.1777E+01  0.1503E+02
  -4.728  0.1780E+01  0.1505E+02
  -4.718  0.1784E+01  0.1507E+02
  -4.708  0.1788E+01  0.1509E+02
  -4.698  0.1792E+01  0.1511E+02
  -4.688  0.1796E+01  0.1512E+02
  -4.678  0.1800E+01  0.1514E+02
  -4.668  0.1805E+01  0.1516E+02
  -4.658  0.1809E+01  0.1518E+02
  -4.648  0.1813E+01  0.1520E+02
  -4.638  0.1818E+01  0.1521E+02
  -4.628  0.1822E+01  0.1523E+02
  -4.618  0.1827E+01  0.1525E+02
  -4.608  0.1831E+01  0.1527E+02
  -4.598  0.1836E+01  0.1529E+02
  -4.588  0.1841E+01  0.1531E+02
  -4.578  0.1846E+01  0.1532E+02
  -4.568  0.1851E+01  0.1534E+02
  -4.558  0.1856E+01  0.1536E+02
  -4.548  0.1861E+01  0.1538E+02
  -4.538  0.1866E+01  0.1540E+02
  -4.528  0.1871E+01  0.1542E+02
  -4.518  0.1877E+01  0.1544E+02
  -4.508  0.1882E+01  0.1546E+02
  -4.498  0.1888E+01  0.1547E+02
  -4.488  0.1893E+01  0.1549E+02
  -4.478  0.1899E+01  0.1551E+02
  -4.468  0.1905E+01  0.1553E+02
  -4.458  0.1911E+01  0.1555E+02
  -4.448  0.1917E+01  0.1557E+02
  -4.438  0.1923E+01  0.1559E+02
  -4.428  0.1929E+01  0.1561E+02
  -4.418  0.1936E+01  0.1563E+02
  -4.408  0.1942E+01  0.1565E+02
  -4.398  0.1949E+01  0.1567E+02
  -4.388  0.1955E+01  0.1569E+02
  -4.378  0.1962E+01  0.1571E+02
  -4.368  0.1969E+01  0.1573E+02
  -4.358  0.1976E+01  0.1574E+02
  -4.348  0.1983E+01  0.1576E+02
  -4.338  0.1990E+01  0.1578E+02
  -4.328  0.1997E+01  0.1580E+02
  -4.318  0.2005E+01  0.1582E+02
  -4.308  0.2012E+01  0.1584E+02
  -4.298  0.2020E+01  0.1587E+02
  -4.288  0.2028E+01  0.1589E+02
  -4.278  0.2036E+01  0.1591E+02
  -4.268  0.2044E+01  0.1593E+02
  -4.258  0.2052E+01  0.1595E+02
  -4.248  0.2060E+01  0.1597E+02
  -4.238  0.2068E+01  0.1599E+02
  -4.228  0.2077E+01  0.1601E+02
  -4.218  0.2085E+01  0.1603E+02
  -4.208  0.2094E+01  0.1605E+02
  -4.198  0.2103E+01  0.1607E+02
  -4.188  0.2112E+01  0.1609E+02
  -4.178  0.2121E+01  0.1611E+02
  -4.168  0.2130E+01  0.1614E+02
  -4.158  0.2140E+01  0.1616E+02
  -4.148  0.2149E+01  0.1618E+02
  -4.138  0.2159E+01  0.1620E+02
  -4.128  0.2168E+01  0.1622E+02
  -4.118  0.2178E+01  0.1624E+02
  -4.108  0.2188E+01  0.1626E+02
  -4.098  0.2198E+01  0.1629E+02
  -4.088  0.2208E+01  0.1631E+02
  -4.078  0.2219E+01  0.1633E+02
  -4.068  0.2229E+01  0.1635E+02
  -4.058  0.2240E+01  0.1638E+02
  -4.048  0.2251E+01  0.1640E+02
  -4.038  0.2261E+01  0.1642E+02
  -4.028  0.2272E+01  0.1644E+02
  -4.018  0.2283E+01  0.1647E+02
  -4.008  0.2295E+01  0.1649E+02
  -3.998  0.2306E+01  0.1651E+02
  -3.988  0.2317E+01  0.1654E+02
  -3.978  0.2329E+01  0.1656E+02
  -3.968  0.2341E+01  0.1658E+02
  -3.958  0.2352E+01  0.1661E+02
  -3.948  0.2364E+01  0.1663E+02
  -3.938  0.2376E+01  0.1665E+02
  -3.928  0.2389E+01  0.1668E+02
  -3.918  0.2401E+01  0.1670E+02
  -3.908  0.2413E+01  0.1673E+02
  -3.898  0.2426E+01  0.1675E+02
  -3.888  0.2438E+01  0.1677E+02
  -3.878  0.2451E+01  0.1680E+02
  -3.868  0.2464E+01  0.1682E+02
  -3.858  0.2477E+01  0.1685E+02
  -3.848  0.2490E+01  0.1687E+02
  -3.838  0.2503E+01  0.1690E+02
  -3.828  0.2516E+01  0.1692E+02
  -3.818  0.2529E+01  0.1695E+02
  -3.808  0.2542E+01  0.1697E+02
  -3.798  0.2556E+01  0.1700E+02
  -3.788  0.2569E+01  0.1703E+02
  -3.778  0.2583E+01  0.1705E+02
  -3.768  0.2597E+01  0.1708E+02
  -3.758  0.2611E+01  0.1710E+02
  -3.748  0.2624E+01  0.1713E+02
  -3.738  0.2638E+01  0.1716E+02
  -3.728  0.2652E+01  0.1718E+02
  -3.718  0.2666E+01  0.1721E+02
  -3.708  0.2680E+01  0.1724E+02
  -3.698  0.2695E+01  0.1726E+02
  -3.688  0.2709E+01  0.1729E+02
  -3.678  0.2723E+01  0.1732E+02
  -3.668  0.2737E+01  0.1734E+02
  -3.658  0.2752E+01  0.1737E+02
  -3.648  0.2766E+01  0.1740E+02
  -3.638  0.2781E+01  0.1743E+02
  -3.628  0.2795E+01  0.1746E+02
  -3.618  0.2810E+01  0.1748E+02
  -3.608  0.2824E+01  0.1751E+02
  -3.598  0.2839E+01  0.1754E+02
  -3.588  0.2853E+01  0.1757E+02
  -3.578  0.2868E+01  0.1760E+02
  -3.568  0.2882E+01  0.1763E+02
  -3.558  0.2897E+01  0.1765E+02
  -3.548  0.2911E+01  0.1768E+02
  -3.538  0.2926E+01  0.1771E+02
  -3.528  0.2940E+01  0.1774E+02
  -3.518  0.2955E+01  0.1777E+02
  -3.508  0.2969E+01  0.1780E+02
  -3.498  0.2984E+01  0.1783E+02
  -3.488  0.2998E+01  0.1786E+02
  -3.478  0.3012E+01  0.1789E+02
  -3.468  0.3027E+01  0.1792E+02
  -3.458  0.3041E+01  0.1795E+02
  -3.448  0.3055E+01  0.1798E+02
  -3.438  0.3069E+01  0.1801E+02
  -3.428  0.3083E+01  0.1804E+02
  -3.418  0.3097E+01  0.1808E+02
  -3.408  0.3111E+01  0.1811E+02
  -3.398  0.3125E+01  0.1814E+02
  -3.388  0.3139E+01  0.1817E+02
  -3.378  0.3152E+01  0.1820E+02
  -3.368  0.3166E+01  0.1823E+02
  -3.358  0.3179E+01  0.1826E+02
  -3.348  0.3192E+01  0.1830E+02
  -3.338  0.3206E+01  0.1833E+02
  -3.328  0.3219E+01  0.1836E+02
  -3.318  0.3231E+01  0.1839E+02
  -3.308  0.3244E+01  0.1843E+02
  -3.298  0.3257E+01  0.1846E+02
  -3.288  0.3269E+01  0.1849E+02
  -3.278  0.3282E+01  0.1852E+02
  -3.268  0.3294E+01  0.1856E+02
  -3.258  0.3306E+01  0.1859E+02
  -3.248  0.3318E+01  0.1862E+02
  -3.238  0.3329E+01  0.1866E+02
  -3.228  0.3341E+01  0.1869E+02
  -3.218  0.3352E+01  0.1872E+02
  -3.208  0.3363E+01  0.1876E+02
  -3.198  0.3374E+01  0.1879E+02
  -3.188  0.3385E+01  0.1882E+02
  -3.178  0.3395E+01  0.1886E+02
  -3.168  0.3405E+01  0.1889E+02
  -3.158  0.3415E+01  0.1893E+02
  -3.148  0.3425E+01  0.1896E+02
  -3.138  0.3434E+01  0.1899E+02
  -3.128  0.3444E+01  0.1903E+02
  -3.118  0.3453E+01  0.1906E+02
  -3.108  0.3462E+01  0.1910E+02
  -3.098  0.3470E+01  0.1913E+02
  -3.088  0.3478E+01  0.1917E+02
  -3.078  0.3486E+01  0.1920E+02
  -3.068  0.3494E+01  0.1924E+02
  -3.058  0.3502E+01  0.1927E+02
  -3.048  0.3509E+01  0.1931E+02
  -3.038  0.3516E+01  0.1934E+02
  -3.028  0.3522E+01  0.1938E+02
  -3.018  0.3528E+01  0.1941E+02
  -3.008  0.3534E+01  0.1945E+02
  -2.998  0.3540E+01  0.1948E+02
  -2.988  0.3546E+01  0.1952E+02
  -2.978  0.3551E+01  0.1955E+02
  -2.968  0.3555E+01  0.1959E+02
  -2.958  0.3560E+01  0.1963E+02
  -2.948  0.3564E+01  0.1966E+02
  -2.938  0.3568E+01  0.1970E+02
  -2.928  0.3571E+01  0.1973E+02
  -2.918  0.3575E+01  0.1977E+02
  -2.908  0.3577E+01  0.1980E+02
  -2.898  0.3580E+01  0.1984E+02
  -2.888  0.3582E+01  0.1988E+02
  -2.878  0.3584E+01  0.1991E+02
  -2.868  0.3585E+01  0.1995E+02
  -2.858  0.3586E+01  0.1998E+02
  -2.848  0.3587E+01  0.2002E+02
  -2.838  0.3588E+01  0.2006E+02
  -2.828  0.3588E+01  0.2009E+02
  -2.818  0.3587E+01  0.2013E+02
  -2.808  0.3587E+01  0.2016E+02
  -2.798  0.3586E+01  0.2020E+02
  -2.788  0.3585E+01  0.2023E+02
  -2.778  0.3583E+01  0.2027E+02
  -2.768  0.3581E+01  0.2031E+02
  -2.758  0.3578E+01  0.2034E+02
  -2.748  0.3576E+01  0.2038E+02
  -2.738  0.3573E+01  0.2041E+02
  -2.728  0.3569E+01  0.2045E+02
  -2.718  0.3565E+01  0.2049E+02
  -2.708  0.3561E+01  0.2052E+02
  -2.698  0.3557E+01  0.2056E+02
  -2.688  0.3552E+01  0.2059E+02
  -2.678  0.3547E+01  0.2063E+02
  -2.668  0.3541E+01  0.2066E+02
  -2.658  0.3535E+01  0.2070E+02
  -2.648  0.3529E+01  0.2073E+02
  -2.638  0.3522E+01  0.2077E+02
  -2.628  0.3515E+01  0.2080E+02
  -2.618  0.3508E+01  0.2084E+02
  -2.608  0.3501E+01  0.2087E+02
  -2.598  0.3493E+01  0.2091E+02
  -2.588  0.3484E+01  0.2094E+02
  -2.578  0.3476E+01  0.2098E+02
  -2.568  0.3467E+01  0.2101E+02
  -2.558  0.3458E+01  0.2105E+02
  -2.548  0.3448E+01  0.2108E+02
  -2.538  0.3438E+01  0.2112E+02
  -2.528  0.3428E+01  0.2115E+02
  -2.518  0.3418E+01  0.2118E+02
  -2.508  0.3407E+01  0.2122E+02
  -2.498  0.3396E+01  0.2125E+02
  -2.488  0.3385E+01  0.2129E+02
  -2.478  0.3373E+01  0.2132E+02
  -2.468  0.3361E+01  0.2135E+02
  -2.458  0.3349E+01  0.2139E+02
  -2.448  0.3337E+01  0.2142E+02
  -2.438  0.3324E+01  0.2145E+02
  -2.428  0.3311E+01  0.2149E+02
  -2.418  0.3298E+01  0.2152E+02
  -2.408  0.3285E+01  0.2155E+02
  -2.398  0.3271E+01  0.2159E+02
  -2.388  0.3258E+01  0.2162E+02
  -2.378  0.3244E+01  0.2165E+02
  -2.368  0.3229E+01  0.2168E+02
  -2.358  0.3215E+01  0.2172E+02
  -2.348  0.3200E+01  0.2175E+02
  -2.338  0.3185E+01  0.2178E+02
  -2.328  0.3170E+01  0.2181E+02
  -2.318  0.3155E+01  0.2184E+02
  -2.308  0.3140E+01  0.2187E+02
  -2.298  0.3124E+01  0.2191E+02
  -2.288  0.3109E+01  0.2194E+02
  -2.278  0.3093E+01  0.2197E+02
  -2.268  0.3077E+01  0.2200E+02
  -2.258  0.3061E+01  0.2203E+02
  -2.248  0.3045E+01  0.2206E+02
  -2.238  0.3029E+01  0.2209E+02
  -2.228  0.3012E+01  0.2212E+02
  -2.218  0.2996E+01  0.2215E+02
  -2.208  0.2979E+01  0.2218E+02
  -2.198  0.2963E+01  0.2221E+02
  -2.188  0.2946E+01  0.2224E+02
  -2.178  0.2930E+01  0.2227E+02
  -2.168  0.2913E+01  0.2230E+02
  -2.158  0.2896E+01  0.2233E+02
  -2.148  0.2879E+01  0.2235E+02
  -2.138  0.2863E+01  0.2238E+02
  -2.128  0.2846E+01  0.2241E+02
  -2.118  0.2829E+01  0.2244E+02
  -2.108  0.2812E+01  0.2247E+02
  -2.098  0.2796E+01  0.2250E+02
  -2.088  0.2779E+01  0.2252E+02
  -2.078  0.2762E+01  0.2255E+02
  -2.068  0.2746E+01  0.2258E+02
  -2.058  0.2729E+01  0.2261E+02
  -2.048  0.2713E+01  0.2263E+02
  -2.038  0.2697E+01  0.2266E+02
  -2.028  0.2680E+01  0.2269E+02
  -2.018  0.2664E+01  0.2271E+02
  -2.008  0.2648E+01  0.2274E+02
  -1.998  0.2632E+01  0.2277E+02
  -1.988  0.2617E+01  0.2279E+02
  -1.978  0.2601E+01  0.2282E+02
  -1.968  0.2586E+01  0.2284E+02
  -1.958  0.2570E+01  0.2287E+02
  -1.948  0.2555E+01  0.2290E+02
  -1.938  0.2540E+01  0.2292E+02
  -1.928  0.2525E+01  0.2295E+02
  -1.918  0.2511E+01  0.2297E+02
  -1.908  0.2497E+01  0.2300E+02
  -1.898  0.2483E+01  0.2302E+02
  -1.888  0.2469E+01  0.2305E+02
  -1.878  0.2455E+01  0.2307E+02
  -1.868  0.2442E+01  0.2309E+02
  -1.858  0.2428E+01  0.2312E+02
  -1.848  0.2416E+01  0.2314E+02
  -1.838  0.2403E+01  0.2317E+02
  -1.828  0.2391E+01  0.2319E+02
  -1.818  0.2379E+01  0.2322E+02
  -1.808  0.2367E+01  0.2324E+02
  -1.798  0.2356E+01  0.2326E+02
  -1.788  0.2344E+01  0.2329E+02
  -1.778  0.2334E+01  0.2331E+02
  -1.768  0.2323E+01  0.2333E+02
  -1.758  0.2313E+01  0.2336E+02
  -1.748  0.2303E+01  0.2338E+02
  -1.738  0.2294E+01  0.2340E+02
  -1.728  0.2285E+01  0.2342E+02
  -1.718  0.2276E+01  0.2345E+02
  -1.708  0.2268E+01  0.2347E+02
  -1.698  0.2260E+01  0.2349E+02
  -1.688  0.2252E+01  0.2351E+02
  -1.678  0.2245E+01  0.2354E+02
  -1.668  0.2238E+01  0.2356E+02
  -1.658  0.2232E+01  0.2358E+02
  -1.648  0.2226E+01  0.2360E+02
  -1.638  0.2221E+01  0.2363E+02
  -1.628  0.2215E+01  0.2365E+02
  -1.618  0.2211E+01  0.2367E+02
  -1.608  0.2206E+01  0.2369E+02
  -1.598  0.2203E+01  0.2371E+02
  -1.588  0.2199E+01  0.2374E+02
  -1.578  0.2196E+01  0.2376E+02
  -1.568  0.2194E+01  0.2378E+02
  -1.558  0.2192E+01  0.2380E+02
  -1.548  0.2190E+01  0.2382E+02
  -1.538  0.2189E+01  0.2385E+02
  -1.528  0.2189E+01  0.2387E+02
  -1.518  0.2188E+01  0.2389E+02
  -1.508  0.2189E+01  0.2391E+02
  -1.498  0.2189E+01  0.2393E+02
  -1.488  0.2191E+01  0.2396E+02
  -1.478  0.2192E+01  0.2398E+02
  -1.468  0.2195E+01  0.2400E+02
  -1.458  0.2197E+01  0.2402E+02
  -1.448  0.2200E+01  0.2404E+02
  -1.438  0.2204E+01  0.2407E+02
  -1.428  0.2208E+01  0.2409E+02
  -1.418  0.2213E+01  0.2411E+02
  -1.408  0.2218E+01  0.2413E+02
  -1.398  0.2224E+01  0.2415E+02
  -1.388  0.2230E+01  0.2418E+02
  -1.378  0.2236E+01  0.2420E+02
  -1.368  0.2243E+01  0.2422E+02
  -1.358  0.2251E+01  0.2424E+02
  -1.348  0.2259E+01  0.2427E+02
  -1.338  0.2268E+01  0.2429E+02
  -1.328  0.2277E+01  0.2431E+02
  -1.318  0.2286E+01  0.2433E+02
  -1.308  0.2296E+01  0.2436E+02
  -1.298  0.2307E+01  0.2438E+02
  -1.288  0.2318E+01  0.2440E+02
  -1.278  0.2329E+01  0.2443E+02
  -1.268  0.2341E+01  0.2445E+02
  -1.258  0.2354E+01  0.2447E+02
  -1.248  0.2367E+01  0.2450E+02
  -1.238  0.2380E+01  0.2452E+02
  -1.228  0.2394E+01  0.2455E+02
  -1.218  0.2408E+01  0.2457E+02
  -1.208  0.2423E+01  0.2459E+02
  -1.198  0.2438E+01  0.2462E+02
  -1.188  0.2454E+01  0.2464E+02
  -1.178  0.2470E+01  0.2467E+02
  -1.168  0.2487E+01  0.2469E+02
  -1.158  0.2504E+01  0.2472E+02
  -1.148  0.2521E+01  0.2474E+02
  -1.138  0.2539E+01  0.2477E+02
  -1.128  0.2558E+01  0.2479E+02
  -1.118  0.2576E+01  0.2482E+02
  -1.108  0.2596E+01  0.2485E+02
  -1.098  0.2615E+01  0.2487E+02
  -1.088  0.2635E+01  0.2490E+02
  -1.078  0.2656E+01  0.2492E+02
  -1.068  0.2677E+01  0.2495E+02
  -1.058  0.2698E+01  0.2498E+02
  -1.048  0.2720E+01  0.2501E+02
  -1.038  0.2742E+01  0.2503E+02
  -1.028  0.2764E+01  0.2506E+02
  -1.018  0.2787E+01  0.2509E+02
  -1.008  0.2810E+01  0.2512E+02
  -0.998  0.2834E+01  0.2514E+02
  -0.988  0.2858E+01  0.2517E+02
  -0.978  0.2882E+01  0.2520E+02
  -0.968  0.2906E+01  0.2523E+02
  -0.958  0.2931E+01  0.2526E+02
  -0.948  0.2957E+01  0.2529E+02
  -0.938  0.2982E+01  0.2532E+02
  -0.928  0.3008E+01  0.2535E+02
  -0.918  0.3034E+01  0.2538E+02
  -0.908  0.3061E+01  0.2541E+02
  -0.898  0.3088E+01  0.2544E+02
  -0.888  0.3115E+01  0.2547E+02
  -0.878  0.3142E+01  0.2550E+02
  -0.868  0.3170E+01  0.2554E+02
  -0.858  0.3198E+01  0.2557E+02
  -0.848  0.3226E+01  0.2560E+02
  -0.838  0.3254E+01  0.2563E+02
  -0.828  0.3283E+01  0.2567E+02
  -0.818  0.3312E+01  0.2570E+02
  -0.808  0.3341E+01  0.2573E+02
  -0.798  0.3370E+01  0.2577E+02
  -0.788  0.3400E+01  0.2580E+02
  -0.778  0.3429E+01  0.2583E+02
  -0.768  0.3459E+01  0.2587E+02
  -0.758  0.3489E+01  0.2590E+02
  -0.748  0.3520E+01  0.2594E+02
  -0.738  0.3550E+01  0.2597E+02
  -0.728  0.3581E+01  0.2601E+02
  -0.718  0.3612E+01  0.2605E+02
  -0.708  0.3642E+01  0.2608E+02
  -0.698  0.3674E+01  0.2612E+02
  -0.688  0.3705E+01  0.2616E+02
  -0.678  0.3736E+01  0.2619E+02
  -0.668  0.3768E+01  0.2623E+02
  -0.658  0.3799E+01  0.2627E+02
  -0.648  0.3831E+01  0.2631E+02
  -0.638  0.3863E+01  0.2635E+02
  -0.628  0.3894E+01  0.2639E+02
  -0.618  0.3926E+01  0.2642E+02
  -0.608  0.3958E+01  0.2646E+02
  -0.598  0.3990E+01  0.2650E+02
  -0.588  0.4022E+01  0.2654E+02
  -0.578  0.4055E+01  0.2658E+02
  -0.568  0.4087E+01  0.2663E+02
  -0.558  0.4119E+01  0.2667E+02
  -0.548  0.4151E+01  0.2671E+02
  -0.538  0.4183E+01  0.2675E+02
  -0.528  0.4216E+01  0.2679E+02
  -0.518  0.4248E+01  0.2684E+02
  -0.508  0.4280E+01  0.2688E+02
  -0.498  0.4313E+01  0.2692E+02
  -0.488  0.4345E+01  0.2696E+02
  -0.478  0.4377E+01  0.2701E+02
  -0.468  0.4409E+01  0.2705E+02
  -0.458  0.4442E+01  0.2710E+02
  -0.448  0.4474E+01  0.2714E+02
  -0.438  0.4506E+01  0.2719E+02
  -0.428  0.4538E+01  0.2723E+02
  -0.418  0.4570E+01  0.2728E+02
  -0.408  0.4602E+01  0.2732E+02
  -0.398  0.4634E+01  0.2737E+02
  -0.388  0.4665E+01  0.2742E+02
  -0.378  0.4697E+01  0.2746E+02
  -0.368  0.4729E+01  0.2751E+02
  -0.358  0.4760E+01  0.2756E+02
  -0.348  0.4792E+01  0.2761E+02
  -0.338  0.4823E+01  0.2765E+02
  -0.328  0.4854E+01  0.2770E+02
  -0.318  0.4885E+01  0.2775E+02
  -0.308  0.4916E+01  0.2780E+02
  -0.298  0.4947E+01  0.2785E+02
  -0.288  0.4978E+01  0.2790E+02
  -0.278  0.5008E+01  0.2795E+02
  -0.268  0.5039E+01  0.2800E+02
  -0.258  0.5069E+01  0.2805E+02
  -0.248  0.5099E+01  0.2810E+02
  -0.238  0.5129E+01  0.2815E+02
  -0.228  0.5159E+01  0.2821E+02
  -0.218  0.5189E+01  0.2826E+02
  -0.208  0.5218E+01  0.2831E+02
  -0.198  0.5248E+01  0.2836E+02
  -0.188  0.5277E+01  0.2841E+02
  -0.178  0.5306E+01  0.2847E+02
  -0.168  0.5335E+01  0.2852E+02
  -0.158  0.5363E+01  0.2857E+02
  -0.148  0.5392E+01  0.2863E+02
  -0.138  0.5420E+01  0.2868E+02
  -0.128  0.5448E+01  0.2874E+02
  -0.118  0.5476E+01  0.2879E+02
  -0.108  0.5504E+01  0.2885E+02
  -0.098  0.5532E+01  0.2890E+02
  -0.088  0.5559E+01  0.2896E+02
  -0.078  0.5586E+01  0.2901E+02
  -0.068  0.5613E+01  0.2907E+02
  -0.058  0.5640E+01  0.2913E+02
  -0.048  0.5666E+01  0.2918E+02
  -0.038  0.5693E+01  0.2924E+02
  -0.028  0.5719E+01  0.2930E+02
  -0.018  0.5745E+01  0.2935E+02
  -0.008  0.5770E+01  0.2941E+02
   0.002  0.5796E+01  0.2947E+02
   0.012  0.5821E+01  0.2953E+02
   0.022  0.5846E+01  0.2959E+02
   0.032  0.5871E+01  0.2965E+02
   0.042  0.5895E+01  0.2970E+02
   0.052  0.5920E+01  0.2976E+02
   0.062  0.5944E+01  0.2982E+02
   0.072  0.5968E+01  0.2988E+02
   0.082  0.5992E+01  0.2994E+02
   0.092  0.6015E+01  0.3000E+02
   0.102  0.6038E+01  0.3006E+02
   0.112  0.6061E+01  0.3012E+02
   0.122  0.6084E+01  0.3018E+02
   0.132  0.6107E+01  0.3025E+02
   0.142  0.6129E+01  0.3031E+02
   0.152  0.6151E+01  0.3037E+02
   0.162  0.6173E+01  0.3043E+02
   0.172  0.6195E+01  0.3049E+02
   0.182  0.6216E+01  0.3055E+02
   0.192  0.6237E+01  0.3062E+02
   0.202  0.6258E+01  0.3068E+02
   0.212  0.6279E+01  0.3074E+02
   0.222  0.6299E+01  0.3081E+02
   0.232  0.6320E+01  0.3087E+02
   0.242  0.6340E+01  0.3093E+02
   0.252  0.6360E+01  0.3100E+02
   0.262  0.6379E+01  0.3106E+02
   0.272  0.6398E+01  0.3112E+02
   0.282  0.6418E+01  0.3119E+02
   0.292  0.6436E+01  0.3125E+02
   0.302  0.6455E+01  0.3132E+02
   0.312  0.6474E+01  0.3138E+02
   0.322  0.6492E+01  0.3145E+02
   0.332  0.6510E+01  0.3151E+02
   0.342  0.6527E+01  0.3158E+02
   0.352  0.6545E+01  0.3164E+02
   0.362  0.6562E+01  0.3171E+02
   0.372  0.6579E+01  0.3177E+02
   0.382  0.6596E+01  0.3184E+02
   0.392  0.6613E+01  0.3191E+02
   0.402  0.6629E+01  0.3197E+02
   0.412  0.6645E+01  0.3204E+02
   0.422  0.6661E+01  0.3210E+02
   0.432  0.6677E+01  0.3217E+02
   0.442  0.6692E+01  0.3224E+02
   0.452  0.6708E+01  0.3231E+02
   0.462  0.6723E+01  0.3237E+02
   0.472  0.6737E+01  0.3244E+02
   0.482  0.6752E+01  0.3251E+02
   0.492  0.6766E+01  0.3258E+02
   0.502  0.6780E+01  0.3264E+02
   0.512  0.6794E+01  0.3271E+02
   0.522  0.6808E+01  0.3278E+02
   0.532  0.6821E+01  0.3285E+02
   0.542  0.6834E+01  0.3292E+02
   0.552  0.6847E+01  0.3298E+02
   0.562  0.6860E+01  0.3305E+02
   0.572  0.6873E+01  0.3312E+02
   0.582  0.6885E+01  0.3319E+02
   0.592  0.6897E+01  0.3326E+02
   0.602  0.6909E+01  0.3333E+02
   0.612  0.6920E+01  0.3340E+02
   0.622  0.6932E+01  0.3347E+02
   0.632  0.6943E+01  0.3354E+02
   0.642  0.6954E+01  0.3361E+02
   0.652  0.6965E+01  0.3368E+02
   0.662  0.6975E+01  0.3375E+02
   0.672  0.6985E+01  0.3382E+02
   0.682  0.6995E+01  0.3389E+02
   0.692  0.7005E+01  0.3396E+02
   0.702  0.7015E+01  0.3403E+02
   0.712  0.7024E+01  0.3410E+02
   0.722  0.7033E+01  0.3417E+02
   0.732  0.7042E+01  0.3424E+02
   0.742  0.7051E+01  0.3431E+02
   0.752  0.7059E+01  0.3438E+02
   0.762  0.7067E+01  0.3445E+02
   0.772  0.7075E+01  0.3452E+02
   0.782  0.7083E+01  0.3459E+02
   0.792  0.7090E+01  0.3466E+02
   0.802  0.7097E+01  0.3473E+02
   0.812  0.7104E+01  0.3480E+02
   0.822  0.7111E+01  0.3487E+02
   0.832  0.7118E+01  0.3494E+02
   0.842  0.7124E+01  0.3502E+02
   0.852  0.7130E+01  0.3509E+02
   0.862  0.7136E+01  0.3516E+02
   0.872  0.7141E+01  0.3523E+02
   0.882  0.7146E+01  0.3530E+02
   0.892  0.7151E+01  0.3537E+02
   0.902  0.7156E+01  0.3544E+02
   0.912  0.7161E+01  0.3552E+02
   0.922  0.7165E+01  0.3559E+02
   0.932  0.7169E+01  0.3566E+02
   0.942  0.7173E+01  0.3573E+02
   0.952  0.7176E+01  0.3580E+02
   0.962  0.7180E+01  0.3587E+02
   0.972  0.7183E+01  0.3595E+02
   0.982  0.7185E+01  0.3602E+02
   0.992  0.7188E+01  0.3609E+02
   1.002  0.7190E+01  0.3616E+02
   1.012  0.7192E+01  0.3623E+02
   1.022  0.7194E+01  0.3631E+02
   1.032  0.7195E+01  0.3638E+02
   1.042  0.7196E+01  0.3645E+02
   1.052  0.7197E+01  0.3652E+02
   1.062  0.7198E+01  0.3659E+02
   1.072  0.7198E+01  0.3667E+02
   1.082  0.7198E+01  0.3674E+02
   1.092  0.7198E+01  0.3681E+02
   1.102  0.7197E+01  0.3688E+02
   1.112  0.7196E+01  0.3695E+02
   1.122  0.7195E+01  0.3703E+02
   1.132  0.7194E+01  0.3710E+02
   1.142  0.7192E+01  0.3717E+02
   1.152  0.7190E+01  0.3724E+02
   1.162  0.7188E+01  0.3731E+02
   1.172  0.7186E+01  0.3739E+02
   1.182  0.7183E+01  0.3746E+02
   1.192  0.7180E+01  0.3753E+02
   1.202  0.7176E+01  0.3760E+02
   1.212  0.7172E+01  0.3767E+02
   1.222  0.7168E+01  0.3774E+02
   1.232  0.7164E+01  0.3782E+02
   1.242  0.7159E+01  0.3789E+02
   1.252  0.7155E+01  0.3796E+02
   1.262  0.7149E+01  0.3803E+02
   1.272  0.7144E+01  0.3810E+02
   1.282  0.7138E+01  0.3817E+02
   1.292  0.7132E+01  0.3824E+02
   1.302  0.7125E+01  0.3832E+02
   1.312  0.7118E+01  0.3839E+02
   1.322  0.7111E+01  0.3846E+02
   1.332  0.7104E+01  0.3853E+02
   1.342  0.7096E+01  0.3860E+02
   1.352  0.7088E+01  0.3867E+02
   1.362  0.7079E+01  0.3874E+02
   1.372  0.7070E+01  0.3881E+02
   1.382  0.7061E+01  0.3888E+02
   1.392  0.7052E+01  0.3895E+02
   1.402  0.7042E+01  0.3902E+02
   1.412  0.7032E+01  0.3909E+02
   1.422  0.7022E+01  0.3916E+02
   1.432  0.7011E+01  0.3923E+02
   1.442  0.7000E+01  0.3930E+02
   1.452  0.6988E+01  0.3937E+02
   1.462  0.6976E+01  0.3944E+02
   1.472  0.6964E+01  0.3951E+02
   1.482  0.6952E+01  0.3958E+02
   1.492  0.6939E+01  0.3965E+02
   1.502  0.6926E+01  0.3972E+02
   1.512  0.6912E+01  0.3979E+02
   1.522  0.6898E+01  0.3986E+02
   1.532  0.6884E+01  0.3993E+02
   1.542  0.6870E+01  0.4000E+02
   1.552  0.6855E+01  0.4007E+02
   1.562  0.6839E+01  0.4013E+02
   1.572  0.6824E+01  0.4020E+02
   1.582  0.6808E+01  0.4027E+02
   1.592  0.6792E+01  0.4034E+02
   1.602  0.6775E+01  0.4041E+02
   1.612  0.6758E+01  0.4047E+02
   1.622  0.6741E+01  0.4054E+02
   1.632  0.6723E+01  0.4061E+02
   1.642  0.6705E+01  0.4068E+02
   1.652  0.6686E+01  0.4074E+02
   1.662  0.6668E+01  0.4081E+02
   1.672  0.6648E+01  0.4088E+02
   1.682  0.6629E+01  0.4094E+02
   1.692  0.6609E+01  0.4101E+02
   1.702  0.6589E+01  0.4107E+02
   1.712  0.6569E+01  0.4114E+02
   1.722  0.6548E+01  0.4121E+02
   1.732  0.6526E+01  0.4127E+02
   1.742  0.6505E+01  0.4134E+02
   1.752  0.6483E+01  0.4140E+02
   1.762  0.6461E+01  0.4147E+02
   1.772  0.6438E+01  0.4153E+02
   1.782  0.6415E+01  0.4159E+02
   1.792  0.6392E+01  0.4166E+02
   1.802  0.6368E+01  0.4172E+02
   1.812  0.6344E+01  0.4178E+02
   1.822  0.6320E+01  0.4185E+02
   1.832  0.6295E+01  0.4191E+02
   1.842  0.6270E+01  0.4197E+02
   1.852  0.6245E+01  0.4204E+02
   1.862  0.6219E+01  0.4210E+02
   1.872  0.6193E+01  0.4216E+02
   1.882  0.6167E+01  0.4222E+02
   1.892  0.6141E+01  0.4228E+02
   1.902  0.6114E+01  0.4234E+02
   1.912  0.6086E+01  0.4241E+02
   1.922  0.6059E+01  0.4247E+02
   1.932  0.6031E+01  0.4253E+02
   1.942  0.6003E+01  0.4259E+02
   1.952  0.5974E+01  0.4265E+02
   1.962  0.5945E+01  0.4271E+02
   1.972  0.5916E+01  0.4276E+02
   1.982  0.5887E+01  0.4282E+02
   1.992  0.5857E+01  0.4288E+02
   2.002  0.5827E+01  0.4294E+02
   2.012  0.5797E+01  0.4300E+02
   2.022  0.5766E+01  0.4306E+02
   2.032  0.5735E+01  0.4311E+02
   2.042  0.5704E+01  0.4317E+02
   2.052  0.5672E+01  0.4323E+02
   2.062  0.5641E+01  0.4328E+02
   2.072  0.5609E+01  0.4334E+02
   2.082  0.5576E+01  0.4340E+02
   2.092  0.5544E+01  0.4345E+02
   2.102  0.5511E+01  0.4351E+02
   2.112  0.5478E+01  0.4356E+02
   2.122  0.5445E+01  0.4361E+02
   2.132  0.5411E+01  0.4367E+02
   2.142  0.5377E+01  0.4372E+02
   2.152  0.5343E+01  0.4378E+02
   2.162  0.5309E+01  0.4383E+02
   2.172  0.5275E+01  0.4388E+02
   2.182  0.5240E+01  0.4393E+02
   2.192  0.5205E+01  0.4399E+02
   2.202  0.5170E+01  0.4404E+02
   2.212  0.5134E+01  0.4409E+02
   2.222  0.5099E+01  0.4414E+02
   2.232  0.5063E+01  0.4419E+02
   2.242  0.5027E+01  0.4424E+02
   2.252  0.4991E+01  0.4429E+02
   2.262  0.4955E+01  0.4434E+02
   2.272  0.4918E+01  0.4439E+02
   2.282  0.4881E+01  0.4444E+02
   2.292  0.4845E+01  0.4449E+02
   2.302  0.4808E+01  0.4454E+02
   2.312  0.4770E+01  0.4458E+02
   2.322  0.4733E+01  0.4463E+02
   2.332  0.4696E+01  0.4468E+02
   2.342  0.4658E+01  0.4472E+02
   2.352  0.4620E+01  0.4477E+02
   2.362  0.4583E+01  0.4482E+02
   2.372  0.4545E+01  0.4486E+02
   2.382  0.4507E+01  0.4491E+02
   2.392  0.4468E+01  0.4495E+02
   2.402  0.4430E+01  0.4500E+02
   2.412  0.4392E+01  0.4504E+02
   2.422  0.4353E+01  0.4508E+02
   2.432  0.4315E+01  0.4513E+02
   2.442  0.4276E+01  0.4517E+02
   2.452  0.4237E+01  0.4521E+02
   2.462  0.4199E+01  0.4525E+02
   2.472  0.4160E+01  0.4529E+02
   2.482  0.4121E+01  0.4534E+02
   2.492  0.4082E+01  0.4538E+02
   2.502  0.4043E+01  0.4542E+02
   2.512  0.4004E+01  0.4546E+02
   2.522  0.3965E+01  0.4550E+02
   2.532  0.3926E+01  0.4554E+02
   2.542  0.3887E+01  0.4558E+02
   2.552  0.3848E+01  0.4561E+02
   2.562  0.3809E+01  0.4565E+02
   2.572  0.3770E+01  0.4569E+02
   2.582  0.3731E+01  0.4573E+02
   2.592  0.3692E+01  0.4576E+02
   2.602  0.3653E+01  0.4580E+02
   2.612  0.3614E+01  0.4584E+02
   2.622  0.3575E+01  0.4587E+02
   2.632  0.3536E+01  0.4591E+02
   2.642  0.3497E+01  0.4594E+02
   2.652  0.3458E+01  0.4598E+02
   2.662  0.3419E+01  0.4601E+02
   2.672  0.3381E+01  0.4604E+02
   2.682  0.3342E+01  0.4608E+02
   2.692  0.3304E+01  0.4611E+02
   2.702  0.3265E+01  0.4614E+02
   2.712  0.3227E+01  0.4618E+02
   2.722  0.3189E+01  0.4621E+02
   2.732  0.3150E+01  0.4624E+02
   2.742  0.3112E+01  0.4627E+02
   2.752  0.3075E+01  0.4630E+02
   2.762  0.3037E+01  0.4633E+02
   2.772  0.2999E+01  0.4636E+02
   2.782  0.2962E+01  0.4639E+02
   2.792  0.2924E+01  0.4642E+02
   2.802  0.2887E+01  0.4645E+02
   2.812  0.2850E+01  0.4648E+02
   2.822  0.2813E+01  0.4651E+02
   2.832  0.2776E+01  0.4653E+02
   2.842  0.2740E+01  0.4656E+02
   2.852  0.2703E+01  0.4659E+02
   2.862  0.2667E+01  0.4662E+02
   2.872  0.2631E+01  0.4664E+02
   2.882  0.2595E+01  0.4667E+02
   2.892  0.2559E+01  0.4669E+02
   2.902  0.2524E+01  0.4672E+02
   2.912  0.2488E+01  0.4674E+02
   2.922  0.2453E+01  0.4677E+02
   2.932  0.2418E+01  0.4679E+02
   2.942  0.2383E+01  0.4682E+02
   2.952  0.2349E+01  0.4684E+02
   2.962  0.2315E+01  0.4686E+02
   2.972  0.2281E+01  0.4689E+02
   2.982  0.2247E+01  0.4691E+02
   2.992  0.2213E+01  0.4693E+02
   3.002  0.2180E+01  0.4695E+02
   3.012  0.2147E+01  0.4697E+02
   3.022  0.2114E+01  0.4699E+02
   3.032  0.2081E+01  0.4701E+02
   3.042  0.2049E+01  0.4704E+02
   3.052  0.2017E+01  0.4706E+02
   3.062  0.1985E+01  0.4708E+02
   3.072  0.1954E+01  0.4710E+02
   3.082  0.1922E+01  0.4711E+02
   3.092  0.1891E+01  0.4713E+02
   3.102  0.1860E+01  0.4715E+02
   3.112  0.1830E+01  0.4717E+02
   3.122  0.1800E+01  0.4719E+02
   3.132  0.1770E+01  0.4721E+02
   3.142  0.1740E+01  0.4722E+02
   3.152  0.1711E+01  0.4724E+02
   3.162  0.1681E+01  0.4726E+02
   3.172  0.1653E+01  0.4727E+02
   3.182  0.1624E+01  0.4729E+02
   3.192  0.1596E+01  0.4731E+02
   3.202  0.1568E+01  0.4732E+02
   3.212  0.1540E+01  0.4734E+02
   3.222  0.1513E+01  0.4735E+02
   3.232  0.1486E+01  0.4737E+02
   3.242  0.1459E+01  0.4738E+02
   3.252  0.1432E+01  0.4740E+02
   3.262  0.1406E+01  0.4741E+02
   3.272  0.1380E+01  0.4742E+02
   3.282  0.1355E+01  0.4744E+02
   3.292  0.1329E+01  0.4745E+02
   3.302  0.1304E+01  0.4746E+02
   3.312  0.1280E+01  0.4748E+02
   3.322  0.1255E+01  0.4749E+02
   3.332  0.1231E+01  0.4750E+02
   3.342  0.1207E+01  0.4751E+02
   3.352  0.1184E+01  0.4753E+02
   3.362  0.1161E+01  0.4754E+02
   3.372  0.1138E+01  0.4755E+02
   3.382  0.1115E+01  0.4756E+02
   3.392  0.1093E+01  0.4757E+02
   3.402  0.1071E+01  0.4758E+02
   3.412  0.1049E+01  0.4759E+02
   3.422  0.1028E+01  0.4760E+02
   3.432  0.1007E+01  0.4761E+02
   3.442  0.9861E+00  0.4762E+02
   3.452  0.9656E+00  0.4763E+02
   3.462  0.9454E+00  0.4764E+02
   3.472  0.9255E+00  0.4765E+02
   3.482  0.9059E+00  0.4766E+02
   3.492  0.8866E+00  0.4767E+02
   3.502  0.8676E+00  0.4768E+02
   3.512  0.8489E+00  0.4769E+02
   3.522  0.8305E+00  0.4769E+02
   3.532  0.8123E+00  0.4770E+02
   3.542  0.7945E+00  0.4771E+02
   3.552  0.7769E+00  0.4772E+02
   3.562  0.7596E+00  0.4772E+02
   3.572  0.7426E+00  0.4773E+02
   3.582  0.7259E+00  0.4774E+02
   3.592  0.7094E+00  0.4775E+02
   3.602  0.6933E+00  0.4775E+02
   3.612  0.6774E+00  0.4776E+02
   3.622  0.6617E+00  0.4777E+02
   3.632  0.6464E+00  0.4777E+02
   3.642  0.6313E+00  0.4778E+02
   3.652  0.6165E+00  0.4779E+02
   3.662  0.6019E+00  0.4779E+02
   3.672  0.5876E+00  0.4780E+02
   3.682  0.5736E+00  0.4780E+02
   3.692  0.5598E+00  0.4781E+02
   3.702  0.5463E+00  0.4781E+02
   3.712  0.5330E+00  0.4782E+02
   3.722  0.5199E+00  0.4783E+02
   3.732  0.5072E+00  0.4783E+02
   3.742  0.4946E+00  0.4784E+02
   3.752  0.4823E+00  0.4784E+02
   3.762  0.4703E+00  0.4784E+02
   3.772  0.4584E+00  0.4785E+02
   3.782  0.4468E+00  0.4785E+02
   3.792  0.4355E+00  0.4786E+02
   3.802  0.4243E+00  0.4786E+02
   3.812  0.4134E+00  0.4787E+02
   3.822  0.4028E+00  0.4787E+02
   3.832  0.3923E+00  0.4787E+02
   3.842  0.3820E+00  0.4788E+02
   3.852  0.3720E+00  0.4788E+02
   3.862  0.3622E+00  0.4789E+02
   3.872  0.3526E+00  0.4789E+02
   3.882  0.3431E+00  0.4789E+02
   3.892  0.3339E+00  0.4790E+02
   3.902  0.3249E+00  0.4790E+02
   3.912  0.3161E+00  0.4790E+02
   3.922  0.3075E+00  0.4791E+02
   3.932  0.2991E+00  0.4791E+02
   3.942  0.2908E+00  0.4791E+02
   3.952  0.2828E+00  0.4791E+02
   3.962  0.2749E+00  0.4792E+02
   3.972  0.2672E+00  0.4792E+02
   3.982  0.2597E+00  0.4792E+02
   3.992  0.2524E+00  0.4792E+02
   4.002  0.2452E+00  0.4793E+02
   4.012  0.2382E+00  0.4793E+02
   4.022  0.2314E+00  0.4793E+02
   4.032  0.2247E+00  0.4793E+02
   4.042  0.2182E+00  0.4794E+02
   4.052  0.2118E+00  0.4794E+02
   4.062  0.2056E+00  0.4794E+02
   4.072  0.1996E+00  0.4794E+02
   4.082  0.1937E+00  0.4794E+02
   4.092  0.1879E+00  0.4795E+02
   4.102  0.1823E+00  0.4795E+02
   4.112  0.1768E+00  0.4795E+02
   4.122  0.1715E+00  0.4795E+02
   4.132  0.1663E+00  0.4795E+02
   4.142  0.1613E+00  0.4795E+02
   4.152  0.1563E+00  0.4796E+02
   4.162  0.1515E+00  0.4796E+02
   4.172  0.1469E+00  0.4796E+02
   4.182  0.1423E+00  0.4796E+02
   4.192  0.1379E+00  0.4796E+02
   4.202  0.1336E+00  0.4796E+02
   4.212  0.1294E+00  0.4796E+02
   4.222  0.1253E+00  0.4797E+02
   4.232  0.1213E+00  0.4797E+02
   4.242  0.1174E+00  0.4797E+02
   4.252  0.1137E+00  0.4797E+02
   4.262  0.1100E+00  0.4797E+02
   4.272  0.1064E+00  0.4797E+02
   4.282  0.1030E+00  0.4797E+02
   4.292  0.9963E-01  0.4797E+02
   4.302  0.9637E-01  0.4797E+02
   4.312  0.9320E-01  0.4798E+02
   4.322  0.9012E-01  0.4798E+02
   4.332  0.8712E-01  0.4798E+02
   4.342  0.8422E-01  0.4798E+02
   4.352  0.8140E-01  0.4798E+02
   4.362  0.7866E-01  0.4798E+02
   4.372  0.7600E-01  0.4798E+02
   4.382  0.7342E-01  0.4798E+02
   4.392  0.7091E-01  0.4798E+02
   4.402  0.6849E-01  0.4798E+02
   4.412  0.6613E-01  0.4798E+02
   4.422  0.6385E-01  0.4798E+02
   4.432  0.6163E-01  0.4798E+02
   4.442  0.5949E-01  0.4799E+02
   4.452  0.5740E-01  0.4799E+02
   4.462  0.5539E-01  0.4799E+02
   4.472  0.5343E-01  0.4799E+02
   4.482  0.5154E-01  0.4799E+02
   4.492  0.4971E-01  0.4799E+02
   4.502  0.4793E-01  0.4799E+02
   4.512  0.4621E-01  0.4799E+02
   4.522  0.4455E-01  0.4799E+02
   4.532  0.4294E-01  0.4799E+02
   4.542  0.4138E-01  0.4799E+02
   4.552  0.3987E-01  0.4799E+02
   4.562  0.3841E-01  0.4799E+02
   4.572  0.3700E-01  0.4799E+02
   4.582  0.3563E-01  0.4799E+02
   4.592  0.3431E-01  0.4799E+02
   4.602  0.3303E-01  0.4799E+02
   4.612  0.3180E-01  0.4799E+02
   4.622  0.3060E-01  0.4799E+02
   4.632  0.2945E-01  0.4799E+02
   4.642  0.2834E-01  0.4799E+02
   4.652  0.2726E-01  0.4799E+02
   4.662  0.2622E-01  0.4799E+02
   4.672  0.2522E-01  0.4799E+02
   4.682  0.2425E-01  0.4799E+02
   4.692  0.2332E-01  0.4799E+02
   4.702  0.2241E-01  0.4799E+02
   4.712  0.2154E-01  0.4800E+02
   4.722  0.2070E-01  0.4800E+02
   4.732  0.1989E-01  0.4800E+02
   4.742  0.1911E-01  0.4800E+02
   4.752  0.1835E-01  0.4800E+02
   4.762  0.1763E-01  0.4800E+02
   4.772  0.1693E-01  0.4800E+02
   4.782  0.1625E-01  0.4800E+02
   4.792  0.1560E-01  0.4800E+02
   4.802  0.1497E-01  0.4800E+02
   4.812  0.1437E-01  0.4800E+02
   4.822  0.1378E-01  0.4800E+02
   4.832  0.1322E-01  0.4800E+02
   4.842  0.1268E-01  0.4800E+02
   4.852  0.1216E-01  0.4800E+02
   4.862  0.1166E-01  0.4800E+02
   4.872  0.1118E-01  0.4800E+02
   4.882  0.1072E-01  0.4800E+02
   4.892  0.1027E-01  0.4800E+02
   4.902  0.9845E-02  0.4800E+02
   4.912  0.9432E-02  0.4800E+02
   4.922  0.9036E-02  0.4800E+02
   4.932  0.8655E-02  0.4800E+02
   4.942  0.8288E-02  0.4800E+02
   4.952  0.7936E-02  0.4800E+02
   4.962  0.7598E-02  0.4800E+02
   4.972  0.7273E-02  0.4800E+02
   4.982  0.6960E-02  0.4800E+02
   4.992  0.6660E-02  0.4800E+02
   5.002  0.6372E-02  0.4800E+02
   5.012  0.6096E-02  0.4800E+02
   5.022  0.5830E-02  0.4800E+02
   5.032  0.5575E-02  0.4800E+02
   5.042  0.5331E-02  0.4800E+02
   5.052  0.5096E-02  0.4800E+02
   5.062  0.4871E-02  0.4800E+02
   5.072  0.4655E-02  0.4800E+02
   5.082  0.4448E-02  0.4800E+02
   5.092  0.4250E-02  0.4800E+02
   5.102  0.4060E-02  0.4800E+02
   5.112  0.3877E-02  0.4800E+02
   5.122  0.3703E-02  0.4800E+02
   5.132  0.3535E-02  0.4800E+02
   5.142  0.3375E-02  0.4800E+02
   5.152  0.3221E-02  0.4800E+02
   5.162  0.3074E-02  0.4800E+02
   5.172  0.2933E-02  0.4800E+02
   5.182  0.2798E-02  0.4800E+02
   5.192  0.2669E-02  0.4800E+02
   5.202  0.2546E-02  0.4800E+02
   5.212  0.2427E-02  0.4800E+02
   5.222  0.2314E-02  0.4800E+02
   5.232  0.2206E-02  0.4800E+02
   5.242  0.2103E-02  0.4800E+02
   5.252  0.2004E-02  0.4800E+02
   5.262  0.1909E-02  0.4800E+02
   5.272  0.1819E-02  0.4800E+02
   5.282  0.1732E-02  0.4800E+02
   5.292  0.1650E-02  0.4800E+02
   5.302  0.1571E-02  0.4800E+02
   5.312  0.1495E-02  0.4800E+02
   5.322  0.1423E-02  0.4800E+02
   5.332  0.1355E-02  0.4800E+02
   5.342  0.1289E-02  0.4800E+02
   5.352  0.1227E-02  0.4800E+02
   5.362  0.1167E-02  0.4800E+02
   5.372  0.1110E-02  0.4800E+02
   5.382  0.1055E-02  0.4800E+02
   5.392  0.1003E-02  0.4800E+02
   5.402  0.9539E-03  0.4800E+02
   5.412  0.9067E-03  0.4800E+02
   5.422  0.8617E-03  0.4800E+02
   5.432  0.8188E-03  0.4800E+02
   5.442  0.7779E-03  0.4800E+02
   5.452  0.7389E-03  0.4800E+02
   5.462  0.7017E-03  0.4800E+02
   5.472  0.6664E-03  0.4800E+02
   5.482  0.6327E-03  0.4800E+02
   5.492  0.6006E-03  0.4800E+02
   5.502  0.5700E-03  0.4800E+02
   5.512  0.5409E-03  0.4800E+02
   5.522  0.5133E-03  0.4800E+02
   5.532  0.4869E-03  0.4800E+02
   5.542  0.4618E-03  0.4800E+02
   5.552  0.4380E-03  0.4800E+02
   5.562  0.4153E-03  0.4800E+02
   5.572  0.3937E-03  0.4800E+02
   5.582  0.3732E-03  0.4800E+02
   5.592  0.3537E-03  0.4800E+02
   5.602  0.3352E-03  0.4800E+02
   5.612  0.3176E-03  0.4800E+02
   5.622  0.3008E-03  0.4800E+02
   5.632  0.2849E-03  0.4800E+02
   5.642  0.2698E-03  0.4800E+02
   5.652  0.2555E-03  0.4800E+02
   5.662  0.2418E-03  0.4800E+02
   5.672  0.2289E-03  0.4800E+02
   5.682  0.2166E-03  0.4800E+02
   5.692  0.2050E-03  0.4800E+02
   5.702  0.1939E-03  0.4800E+02
   5.712  0.1834E-03  0.4800E+02
   5.722  0.1735E-03  0.4800E+02
   5.732  0.1641E-03  0.4800E+02
   5.742  0.1551E-03  0.4800E+02
   5.752  0.1466E-03  0.4800E+02
   5.762  0.1386E-03  0.4800E+02
   5.772  0.1310E-03  0.4800E+02
   5.782  0.1237E-03  0.4800E+02
   5.792  0.1169E-03  0.4800E+02
   5.802  0.1104E-03  0.4800E+02
   5.812  0.1043E-03  0.4800E+02
   5.822  0.9844E-04  0.4800E+02
   5.832  0.9294E-04  0.4800E+02
