#  E (eV)   dos(E)     Int dos(E) EFermi =   10.760 eV
 -12.442  0.3138E-03  0.3138E-05
 -12.432  0.3532E-03  0.6670E-05
 -12.422  0.3973E-03  0.1064E-04
 -12.412  0.4467E-03  0.1511E-04
 -12.402  0.5018E-03  0.2013E-04
 -12.392  0.5634E-03  0.2576E-04
 -12.382  0.6321E-03  0.3208E-04
 -12.372  0.7088E-03  0.3917E-04
 -12.362  0.7942E-03  0.4711E-04
 -12.352  0.8894E-03  0.5601E-04
 -12.342  0.9954E-03  0.6596E-04
 -12.332  0.1113E-02  0.7709E-04
 -12.322  0.1244E-02  0.8954E-04
 -12.312  0.1390E-02  0.1034E-03
 -12.302  0.1551E-02  0.1189E-03
 -12.292  0.1730E-02  0.1362E-03
 -12.282  0.1929E-02  0.1555E-03
 -12.272  0.2149E-02  0.1770E-03
 -12.262  0.2393E-02  0.2010E-03
 -12.252  0.2662E-02  0.2276E-03
 -12.242  0.2960E-02  0.2572E-03
 -12.232  0.3290E-02  0.2901E-03
 -12.222  0.3653E-02  0.3266E-03
 -12.212  0.4054E-02  0.3672E-03
 -12.202  0.4496E-02  0.4121E-03
 -12.192  0.4984E-02  0.4619E-03
 -12.182  0.5520E-02  0.5172E-03
 -12.172  0.6110E-02  0.5783E-03
 -12.162  0.6760E-02  0.6459E-03
 -12.152  0.7473E-02  0.7206E-03
 -12.142  0.8256E-02  0.8031E-03
 -12.132  0.9116E-02  0.8943E-03
 -12.122  0.1006E-01  0.9949E-03
 -12.112  0.1109E-01  0.1106E-02
 -12.102  0.1222E-01  0.1228E-02
 -12.092  0.1346E-01  0.1363E-02
 -12.082  0.1481E-01  0.1511E-02
 -12.072  0.1629E-01  0.1674E-02
 -12.062  0.1791E-01  0.1853E-02
 -12.052  0.1967E-01  0.2050E-02
 -12.042  0.2160E-01  0.2265E-02
 -12.032  0.2369E-01  0.2502E-02
 -12.022  0.2598E-01  0.2762E-02
 -12.012  0.2846E-01  0.3047E-02
 -12.002  0.3116E-01  0.3358E-02
 -11.992  0.3410E-01  0.3699E-02
 -11.982  0.3729E-01  0.4072E-02
 -11.972  0.4075E-01  0.4480E-02
 -11.962  0.4451E-01  0.4925E-02
 -11.952  0.4858E-01  0.5411E-02
 -11.942  0.5299E-01  0.5941E-02
 -11.932  0.5777E-01  0.6518E-02
 -11.922  0.6293E-01  0.7148E-02
 -11.912  0.6851E-01  0.7833E-02
 -11.902  0.7454E-01  0.8578E-02
 -11.892  0.8105E-01  0.9389E-02
 -11.882  0.8807E-01  0.1027E-01
 -11.872  0.9563E-01  0.1123E-01
 -11.862  0.1038E+00  0.1226E-01
 -11.852  0.1126E+00  0.1339E-01
 -11.842  0.1220E+00  0.1461E-01
 -11.832  0.1321E+00  0.1593E-01
 -11.822  0.1430E+00  0.1736E-01
 -11.812  0.1547E+00  0.1891E-01
 -11.802  0.1673E+00  0.2058E-01
 -11.792  0.1807E+00  0.2239E-01
 -11.782  0.1951E+00  0.2434E-01
 -11.772  0.2106E+00  0.2645E-01
 -11.762  0.2271E+00  0.2872E-01
 -11.752  0.2447E+00  0.3116E-01
 -11.742  0.2635E+00  0.3380E-01
 -11.732  0.2837E+00  0.3664E-01
 -11.722  0.3051E+00  0.3969E-01
 -11.712  0.3280E+00  0.4297E-01
 -11.702  0.3523E+00  0.4649E-01
 -11.692  0.3782E+00  0.5027E-01
 -11.682  0.4058E+00  0.5433E-01
 -11.672  0.4351E+00  0.5868E-01
 -11.662  0.4662E+00  0.6334E-01
 -11.652  0.4993E+00  0.6834E-01
 -11.642  0.5343E+00  0.7368E-01
 -11.632  0.5714E+00  0.7939E-01
 -11.622  0.6108E+00  0.8550E-01
 -11.612  0.6524E+00  0.9203E-01
 -11.602  0.6964E+00  0.9899E-01
 -11.592  0.7429E+00  0.1064E+00
 -11.582  0.7921E+00  0.1143E+00
 -11.572  0.8439E+00  0.1228E+00
 -11.562  0.8986E+00  0.1318E+00
 -11.552  0.9562E+00  0.1413E+00
 -11.542  0.1017E+01  0.1515E+00
 -11.532  0.1081E+01  0.1623E+00
 -11.522  0.1148E+01  0.1738E+00
 -11.512  0.1218E+01  0.1860E+00
 -11.502  0.1292E+01  0.1989E+00
 -11.492  0.1370E+01  0.2126E+00
 -11.482  0.1451E+01  0.2271E+00
 -11.472  0.1536E+01  0.2425E+00
 -11.462  0.1626E+01  0.2587E+00
 -11.452  0.1719E+01  0.2759E+00
 -11.442  0.1817E+01  0.2941E+00
 -11.432  0.1918E+01  0.3133E+00
 -11.422  0.2025E+01  0.3335E+00
 -11.412  0.2136E+01  0.3549E+00
 -11.402  0.2251E+01  0.3774E+00
 -11.392  0.2371E+01  0.4011E+00
 -11.382  0.2496E+01  0.4260E+00
 -11.372  0.2626E+01  0.4523E+00
 -11.362  0.2761E+01  0.4799E+00
 -11.352  0.2902E+01  0.5089E+00
 -11.342  0.3047E+01  0.5394E+00
 -11.332  0.3198E+01  0.5714E+00
 -11.322  0.3354E+01  0.6049E+00
 -11.312  0.3515E+01  0.6401E+00
 -11.302  0.3682E+01  0.6769E+00
 -11.292  0.3854E+01  0.7154E+00
 -11.282  0.4032E+01  0.7557E+00
 -11.272  0.4215E+01  0.7979E+00
 -11.262  0.4404E+01  0.8419E+00
 -11.252  0.4599E+01  0.8879E+00
 -11.242  0.4799E+01  0.9359E+00
 -11.232  0.5005E+01  0.9860E+00
 -11.222  0.5216E+01  0.1038E+01
 -11.212  0.5433E+01  0.1092E+01
 -11.202  0.5655E+01  0.1149E+01
 -11.192  0.5883E+01  0.1208E+01
 -11.182  0.6115E+01  0.1269E+01
 -11.172  0.6354E+01  0.1333E+01
 -11.162  0.6597E+01  0.1398E+01
 -11.152  0.6845E+01  0.1467E+01
 -11.142  0.7098E+01  0.1538E+01
 -11.132  0.7356E+01  0.1611E+01
 -11.122  0.7619E+01  0.1688E+01
 -11.112  0.7886E+01  0.1767E+01
 -11.102  0.8157E+01  0.1848E+01
 -11.092  0.8432E+01  0.1932E+01
 -11.082  0.8711E+01  0.2020E+01
 -11.072  0.8994E+01  0.2109E+01
 -11.062  0.9280E+01  0.2202E+01
 -11.052  0.9569E+01  0.2298E+01
 -11.042  0.9861E+01  0.2397E+01
 -11.032  0.1016E+02  0.2498E+01
 -11.022  0.1045E+02  0.2603E+01
 -11.012  0.1075E+02  0.2710E+01
 -11.002  0.1105E+02  0.2821E+01
 -10.992  0.1135E+02  0.2934E+01
 -10.982  0.1165E+02  0.3051E+01
 -10.972  0.1196E+02  0.3170E+01
 -10.962  0.1226E+02  0.3293E+01
 -10.952  0.1256E+02  0.3419E+01
 -10.942  0.1287E+02  0.3547E+01
 -10.932  0.1317E+02  0.3679E+01
 -10.922  0.1347E+02  0.3814E+01
 -10.912  0.1377E+02  0.3951E+01
 -10.902  0.1406E+02  0.4092E+01
 -10.892  0.1435E+02  0.4235E+01
 -10.882  0.1465E+02  0.4382E+01
 -10.872  0.1493E+02  0.4531E+01
 -10.862  0.1521E+02  0.4683E+01
 -10.852  0.1549E+02  0.4838E+01
 -10.842  0.1577E+02  0.4996E+01
 -10.832  0.1604E+02  0.5156E+01
 -10.822  0.1630E+02  0.5319E+01
 -10.812  0.1656E+02  0.5485E+01
 -10.802  0.1681E+02  0.5653E+01
 -10.792  0.1705E+02  0.5823E+01
 -10.782  0.1729E+02  0.5996E+01
 -10.772  0.1751E+02  0.6171E+01
 -10.762  0.1774E+02  0.6349E+01
 -10.752  0.1795E+02  0.6528E+01
 -10.742  0.1815E+02  0.6710E+01
 -10.732  0.1834E+02  0.6893E+01
 -10.722  0.1853E+02  0.7078E+01
 -10.712  0.1870E+02  0.7265E+01
 -10.702  0.1887E+02  0.7454E+01
 -10.692  0.1902E+02  0.7644E+01
 -10.682  0.1917E+02  0.7836E+01
 -10.672  0.1930E+02  0.8029E+01
 -10.662  0.1942E+02  0.8223E+01
 -10.652  0.1953E+02  0.8418E+01
 -10.642  0.1963E+02  0.8615E+01
 -10.632  0.1971E+02  0.8812E+01
 -10.622  0.1979E+02  0.9010E+01
 -10.612  0.1985E+02  0.9208E+01
 -10.602  0.1990E+02  0.9407E+01
 -10.592  0.1994E+02  0.9607E+01
 -10.582  0.1996E+02  0.9806E+01
 -10.572  0.1997E+02  0.1001E+02
 -10.562  0.1997E+02  0.1021E+02
 -10.552  0.1996E+02  0.1041E+02
 -10.542  0.1994E+02  0.1060E+02
 -10.532  0.1990E+02  0.1080E+02
 -10.522  0.1985E+02  0.1100E+02
 -10.512  0.1979E+02  0.1120E+02
 -10.502  0.1971E+02  0.1140E+02
 -10.492  0.1962E+02  0.1159E+02
 -10.482  0.1953E+02  0.1179E+02
 -10.472  0.1942E+02  0.1198E+02
 -10.462  0.1930E+02  0.1218E+02
 -10.452  0.1916E+02  0.1237E+02
 -10.442  0.1902E+02  0.1256E+02
 -10.432  0.1886E+02  0.1275E+02
 -10.422  0.1870E+02  0.1293E+02
 -10.412  0.1853E+02  0.1312E+02
 -10.402  0.1834E+02  0.1330E+02
 -10.392  0.1815E+02  0.1348E+02
 -10.382  0.1794E+02  0.1366E+02
 -10.372  0.1773E+02  0.1384E+02
 -10.362  0.1751E+02  0.1402E+02
 -10.352  0.1728E+02  0.1419E+02
 -10.342  0.1704E+02  0.1436E+02
 -10.332  0.1680E+02  0.1453E+02
 -10.322  0.1655E+02  0.1469E+02
 -10.312  0.1629E+02  0.1485E+02
 -10.302  0.1603E+02  0.1501E+02
 -10.292  0.1576E+02  0.1517E+02
 -10.282  0.1548E+02  0.1533E+02
 -10.272  0.1521E+02  0.1548E+02
 -10.262  0.1492E+02  0.1563E+02
 -10.252  0.1464E+02  0.1578E+02
 -10.242  0.1434E+02  0.1592E+02
 -10.232  0.1405E+02  0.1606E+02
 -10.222  0.1375E+02  0.1620E+02
 -10.212  0.1346E+02  0.1633E+02
 -10.202  0.1316E+02  0.1646E+02
 -10.192  0.1285E+02  0.1659E+02
 -10.182  0.1255E+02  0.1672E+02
 -10.172  0.1225E+02  0.1684E+02
 -10.162  0.1194E+02  0.1696E+02
 -10.152  0.1164E+02  0.1708E+02
 -10.142  0.1134E+02  0.1719E+02
 -10.132  0.1104E+02  0.1730E+02
 -10.122  0.1074E+02  0.1741E+02
 -10.112  0.1044E+02  0.1751E+02
 -10.102  0.1014E+02  0.1761E+02
 -10.092  0.9846E+01  0.1771E+02
 -10.082  0.9554E+01  0.1781E+02
 -10.072  0.9265E+01  0.1790E+02
 -10.062  0.8978E+01  0.1799E+02
 -10.052  0.8696E+01  0.1808E+02
 -10.042  0.8416E+01  0.1816E+02
 -10.032  0.8141E+01  0.1824E+02
 -10.022  0.7870E+01  0.1832E+02
 -10.012  0.7603E+01  0.1840E+02
 -10.002  0.7340E+01  0.1847E+02
  -9.992  0.7082E+01  0.1854E+02
  -9.982  0.6829E+01  0.1861E+02
  -9.972  0.6581E+01  0.1867E+02
  -9.962  0.6337E+01  0.1874E+02
  -9.952  0.6099E+01  0.1880E+02
  -9.942  0.5866E+01  0.1886E+02
  -9.932  0.5639E+01  0.1891E+02
  -9.922  0.5417E+01  0.1897E+02
  -9.912  0.5200E+01  0.1902E+02
  -9.902  0.4989E+01  0.1907E+02
  -9.892  0.4783E+01  0.1912E+02
  -9.882  0.4583E+01  0.1916E+02
  -9.872  0.4389E+01  0.1921E+02
  -9.862  0.4200E+01  0.1925E+02
  -9.852  0.4017E+01  0.1929E+02
  -9.842  0.3839E+01  0.1933E+02
  -9.832  0.3667E+01  0.1936E+02
  -9.822  0.3500E+01  0.1940E+02
  -9.812  0.3339E+01  0.1943E+02
  -9.802  0.3183E+01  0.1946E+02
  -9.792  0.3033E+01  0.1949E+02
  -9.782  0.2888E+01  0.1952E+02
  -9.772  0.2748E+01  0.1955E+02
  -9.762  0.2613E+01  0.1958E+02
  -9.752  0.2483E+01  0.1960E+02
  -9.742  0.2359E+01  0.1963E+02
  -9.732  0.2239E+01  0.1965E+02
  -9.722  0.2124E+01  0.1967E+02
  -9.712  0.2013E+01  0.1969E+02
  -9.702  0.1907E+01  0.1971E+02
  -9.692  0.1805E+01  0.1973E+02
  -9.682  0.1708E+01  0.1974E+02
  -9.672  0.1615E+01  0.1976E+02
  -9.662  0.1526E+01  0.1978E+02
  -9.652  0.1441E+01  0.1979E+02
  -9.642  0.1360E+01  0.1980E+02
  -9.632  0.1283E+01  0.1982E+02
  -9.622  0.1209E+01  0.1983E+02
  -9.612  0.1139E+01  0.1984E+02
  -9.602  0.1072E+01  0.1985E+02
  -9.592  0.1009E+01  0.1986E+02
  -9.582  0.9484E+00  0.1987E+02
  -9.572  0.8911E+00  0.1988E+02
  -9.562  0.8367E+00  0.1989E+02
  -9.552  0.7852E+00  0.1989E+02
  -9.542  0.7363E+00  0.1990E+02
  -9.532  0.6901E+00  0.1991E+02
  -9.522  0.6463E+00  0.1992E+02
  -9.512  0.6050E+00  0.1992E+02
  -9.502  0.5659E+00  0.1993E+02
  -9.492  0.5290E+00  0.1993E+02
  -9.482  0.4942E+00  0.1994E+02
  -9.472  0.4614E+00  0.1994E+02
  -9.462  0.4305E+00  0.1995E+02
  -9.452  0.4014E+00  0.1995E+02
  -9.442  0.3741E+00  0.1995E+02
  -9.432  0.3484E+00  0.1996E+02
  -9.422  0.3242E+00  0.1996E+02
  -9.412  0.3015E+00  0.1996E+02
  -9.402  0.2803E+00  0.1997E+02
  -9.392  0.2603E+00  0.1997E+02
  -9.382  0.2417E+00  0.1997E+02
  -9.372  0.2242E+00  0.1997E+02
  -9.362  0.2079E+00  0.1998E+02
  -9.352  0.1926E+00  0.1998E+02
  -9.342  0.1783E+00  0.1998E+02
  -9.332  0.1650E+00  0.1998E+02
  -9.322  0.1526E+00  0.1998E+02
  -9.312  0.1410E+00  0.1998E+02
  -9.302  0.1302E+00  0.1999E+02
  -9.292  0.1202E+00  0.1999E+02
  -9.282  0.1109E+00  0.1999E+02
  -9.272  0.1022E+00  0.1999E+02
  -9.262  0.9417E-01  0.1999E+02
  -9.252  0.8669E-01  0.1999E+02
  -9.242  0.7976E-01  0.1999E+02
  -9.232  0.7334E-01  0.1999E+02
  -9.222  0.6739E-01  0.1999E+02
  -9.212  0.6188E-01  0.1999E+02
  -9.202  0.5679E-01  0.1999E+02
  -9.192  0.5208E-01  0.1999E+02
  -9.182  0.4774E-01  0.2000E+02
  -9.172  0.4372E-01  0.2000E+02
  -9.162  0.4002E-01  0.2000E+02
  -9.152  0.3661E-01  0.2000E+02
  -9.142  0.3347E-01  0.2000E+02
  -9.132  0.3058E-01  0.2000E+02
  -9.122  0.2792E-01  0.2000E+02
  -9.112  0.2547E-01  0.2000E+02
  -9.102  0.2323E-01  0.2000E+02
  -9.092  0.2117E-01  0.2000E+02
  -9.082  0.1928E-01  0.2000E+02
  -9.072  0.1754E-01  0.2000E+02
  -9.062  0.1596E-01  0.2000E+02
  -9.052  0.1450E-01  0.2000E+02
  -9.042  0.1318E-01  0.2000E+02
  -9.032  0.1196E-01  0.2000E+02
  -9.022  0.1085E-01  0.2000E+02
  -9.012  0.9837E-02  0.2000E+02
  -9.002  0.8912E-02  0.2000E+02
  -8.992  0.8070E-02  0.2000E+02
  -8.982  0.7302E-02  0.2000E+02
  -8.972  0.6603E-02  0.2000E+02
  -8.962  0.5968E-02  0.2000E+02
  -8.952  0.5389E-02  0.2000E+02
  -8.942  0.4864E-02  0.2000E+02
  -8.932  0.4387E-02  0.2000E+02
  -8.922  0.3955E-02  0.2000E+02
  -8.912  0.3563E-02  0.2000E+02
  -8.902  0.3207E-02  0.2000E+02
  -8.892  0.2885E-02  0.2000E+02
  -8.882  0.2594E-02  0.2000E+02
  -8.872  0.2331E-02  0.2000E+02
  -8.862  0.2093E-02  0.2000E+02
  -8.852  0.1878E-02  0.2000E+02
  -8.842  0.1684E-02  0.2000E+02
  -8.832  0.1509E-02  0.2000E+02
  -8.822  0.1352E-02  0.2000E+02
  -8.812  0.1210E-02  0.2000E+02
  -8.802  0.1082E-02  0.2000E+02
  -8.792  0.9675E-03  0.2000E+02
  -8.782  0.8643E-03  0.2000E+02
  -8.772  0.7716E-03  0.2000E+02
  -8.762  0.6884E-03  0.2000E+02
  -8.752  0.6138E-03  0.2000E+02
  -8.742  0.5469E-03  0.2000E+02
  -8.732  0.4870E-03  0.2000E+02
  -8.722  0.4333E-03  0.2000E+02
  -8.712  0.3854E-03  0.2000E+02
  -8.702  0.3425E-03  0.2000E+02
  -8.692  0.3042E-03  0.2000E+02
  -8.682  0.2700E-03  0.2000E+02
  -8.672  0.2395E-03  0.2000E+02
  -8.662  0.2123E-03  0.2000E+02
  -8.652  0.1881E-03  0.2000E+02
  -8.642  0.1665E-03  0.2000E+02
  -8.632  0.1473E-03  0.2000E+02
  -8.622  0.1302E-03  0.2000E+02
  -8.612  0.1151E-03  0.2000E+02
  -8.602  0.1016E-03  0.2000E+02
  -8.592  0.8967E-04  0.2000E+02
  -8.582  0.7908E-04  0.2000E+02
  -8.572  0.6969E-04  0.2000E+02
  -8.562  0.6138E-04  0.2000E+02
  -8.552  0.5403E-04  0.2000E+02
  -8.542  0.4752E-04  0.2000E+02
  -8.532  0.4177E-04  0.2000E+02
  -8.522  0.3670E-04  0.2000E+02
  -8.512  0.3222E-04  0.2000E+02
  -8.502  0.2826E-04  0.2000E+02
  -8.492  0.2478E-04  0.2000E+02
  -8.482  0.2171E-04  0.2000E+02
  -8.472  0.1901E-04  0.2000E+02
  -8.462  0.1664E-04  0.2000E+02
  -8.452  0.1455E-04  0.2000E+02
  -8.442  0.1272E-04  0.2000E+02
  -8.432  0.1111E-04  0.2000E+02
  -8.422  0.9693E-05  0.2000E+02
  -8.412  0.8454E-05  0.2000E+02
  -8.402  0.7369E-05  0.2000E+02
  -8.392  0.6420E-05  0.2000E+02
  -8.382  0.5589E-05  0.2000E+02
  -8.372  0.4862E-05  0.2000E+02
  -8.362  0.4227E-05  0.2000E+02
  -8.352  0.3673E-05  0.2000E+02
  -8.342  0.3189E-05  0.2000E+02
  -8.332  0.2767E-05  0.2000E+02
  -8.322  0.2400E-05  0.2000E+02
  -8.312  0.2080E-05  0.2000E+02
  -8.302  0.1801E-05  0.2000E+02
  -8.292  0.1559E-05  0.2000E+02
  -8.282  0.1348E-05  0.2000E+02
  -8.272  0.1165E-05  0.2000E+02
  -8.262  0.1007E-05  0.2000E+02
  -8.252  0.8690E-06  0.2000E+02
  -8.242  0.7496E-06  0.2000E+02
  -8.232  0.6463E-06  0.2000E+02
  -8.222  0.5568E-06  0.2000E+02
  -8.212  0.4794E-06  0.2000E+02
  -8.202  0.4125E-06  0.2000E+02
  -8.192  0.3547E-06  0.2000E+02
  -8.182  0.3048E-06  0.2000E+02
  -8.172  0.2618E-06  0.2000E+02
  -8.162  0.2246E-06  0.2000E+02
  -8.152  0.1927E-06  0.2000E+02
  -8.142  0.1651E-06  0.2000E+02
  -8.132  0.1414E-06  0.2000E+02
  -8.122  0.1211E-06  0.2000E+02
  -8.112  0.1036E-06  0.2000E+02
  -8.102  0.8854E-07  0.2000E+02
  -8.092  0.7564E-07  0.2000E+02
  -8.082  0.6458E-07  0.2000E+02
  -8.072  0.5510E-07  0.2000E+02
  -8.062  0.4698E-07  0.2000E+02
  -8.052  0.4003E-07  0.2000E+02
  -8.042  0.3409E-07  0.2000E+02
  -8.032  0.2901E-07  0.2000E+02
  -8.022  0.2467E-07  0.2000E+02
  -8.012  0.2097E-07  0.2000E+02
  -8.002  0.1781E-07  0.2000E+02
  -7.992  0.1512E-07  0.2000E+02
  -7.982  0.1282E-07  0.2000E+02
  -7.972  0.1087E-07  0.2000E+02
  -7.962  0.9206E-08  0.2000E+02
  -7.952  0.7794E-08  0.2000E+02
  -7.942  0.6594E-08  0.2000E+02
  -7.932  0.5575E-08  0.2000E+02
  -7.922  0.4710E-08  0.2000E+02
  -7.912  0.3977E-08  0.2000E+02
  -7.902  0.3356E-08  0.2000E+02
  -7.892  0.2830E-08  0.2000E+02
  -7.882  0.2385E-08  0.2000E+02
  -7.872  0.2008E-08  0.2000E+02
  -7.862  0.1690E-08  0.2000E+02
  -7.852  0.1422E-08  0.2000E+02
  -7.842  0.1195E-08  0.2000E+02
  -7.832  0.1004E-08  0.2000E+02
  -7.822  0.8425E-09  0.2000E+02
  -7.812  0.7068E-09  0.2000E+02
  -7.802  0.5925E-09  0.2000E+02
  -7.792  0.4964E-09  0.2000E+02
  -7.782  0.4156E-09  0.2000E+02
  -7.772  0.3477E-09  0.2000E+02
  -7.762  0.2907E-09  0.2000E+02
  -7.752  0.2429E-09  0.2000E+02
  -7.742  0.2029E-09  0.2000E+02
  -7.732  0.1693E-09  0.2000E+02
  -7.722  0.1412E-09  0.2000E+02
  -7.712  0.1177E-09  0.2000E+02
  -7.702  0.9799E-10  0.2000E+02
  -7.692  0.8156E-10  0.2000E+02
  -7.682  0.6784E-10  0.2000E+02
  -7.672  0.5639E-10  0.2000E+02
  -7.662  0.4684E-10  0.2000E+02
  -7.652  0.3889E-10  0.2000E+02
  -7.642  0.3226E-10  0.2000E+02
  -7.632  0.2675E-10  0.2000E+02
  -7.622  0.2216E-10  0.2000E+02
  -7.612  0.1835E-10  0.2000E+02
  -7.602  0.1518E-10  0.2000E+02
  -7.592  0.1255E-10  0.2000E+02
  -7.582  0.1037E-10  0.2000E+02
  -7.572  0.8567E-11  0.2000E+02
  -7.562  0.7070E-11  0.2000E+02
  -7.552  0.5831E-11  0.2000E+02
  -7.542  0.4806E-11  0.2000E+02
  -7.532  0.3958E-11  0.2000E+02
  -7.522  0.3258E-11  0.2000E+02
  -7.512  0.2680E-11  0.2000E+02
  -7.502  0.2203E-11  0.2000E+02
  -7.492  0.1810E-11  0.2000E+02
  -7.482  0.1486E-11  0.2000E+02
  -7.472  0.1219E-11  0.2000E+02
  -7.462  0.9994E-12  0.2000E+02
  -7.452  0.8188E-12  0.2000E+02
  -7.442  0.6705E-12  0.2000E+02
  -7.432  0.5486E-12  0.2000E+02
  -7.422  0.4486E-12  0.2000E+02
  -7.412  0.3666E-12  0.2000E+02
  -7.402  0.2994E-12  0.2000E+02
  -7.392  0.2443E-12  0.2000E+02
  -7.382  0.1993E-12  0.2000E+02
  -7.372  0.1624E-12  0.2000E+02
  -7.362  0.1323E-12  0.2000E+02
  -7.352  0.1077E-12  0.2000E+02
  -7.342  0.8760E-13  0.2000E+02
  -7.332  0.7121E-13  0.2000E+02
  -7.322  0.5785E-13  0.2000E+02
  -7.312  0.4697E-13  0.2000E+02
  -7.302  0.3811E-13  0.2000E+02
  -7.292  0.3090E-13  0.2000E+02
  -7.282  0.2503E-13  0.2000E+02
  -7.272  0.2027E-13  0.2000E+02
  -7.262  0.1640E-13  0.2000E+02
  -7.252  0.1326E-13  0.2000E+02
  -7.242  0.1072E-13  0.2000E+02
  -7.232  0.8656E-14  0.2000E+02
  -7.222  0.6986E-14  0.2000E+02
  -7.212  0.5635E-14  0.2000E+02
  -7.202  0.4542E-14  0.2000E+02
  -7.192  0.3658E-14  0.2000E+02
  -7.182  0.2945E-14  0.2000E+02
  -7.172  0.2369E-14  0.2000E+02
  -7.162  0.1904E-14  0.2000E+02
  -7.152  0.1530E-14  0.2000E+02
  -7.142  0.1228E-14  0.2000E+02
  -7.132  0.9853E-15  0.2000E+02
  -7.122  0.7900E-15  0.2000E+02
  -7.112  0.6330E-15  0.2000E+02
  -7.102  0.5068E-15  0.2000E+02
  -7.092  0.4056E-15  0.2000E+02
  -7.082  0.3243E-15  0.2000E+02
  -7.072  0.2592E-15  0.2000E+02
  -7.062  0.2070E-15  0.2000E+02
  -7.052  0.1652E-15  0.2000E+02
  -7.042  0.1318E-15  0.2000E+02
  -7.032  0.1050E-15  0.2000E+02
  -7.022  0.8364E-16  0.2000E+02
  -7.012  0.6658E-16  0.2000E+02
  -7.002  0.5296E-16  0.2000E+02
  -6.992  0.4210E-16  0.2000E+02
  -6.982  0.3345E-16  0.2000E+02
  -6.972  0.2655E-16  0.2000E+02
  -6.962  0.2107E-16  0.2000E+02
  -6.952  0.1670E-16  0.2000E+02
  -6.942  0.1323E-16  0.2000E+02
  -6.932  0.1048E-16  0.2000E+02
  -6.922  0.8291E-17  0.2000E+02
  -6.912  0.6556E-17  0.2000E+02
  -6.902  0.5181E-17  0.2000E+02
  -6.892  0.4092E-17  0.2000E+02
  -6.882  0.3229E-17  0.2000E+02
  -6.872  0.2547E-17  0.2000E+02
  -6.862  0.2007E-17  0.2000E+02
  -6.852  0.1581E-17  0.2000E+02
  -6.842  0.1244E-17  0.2000E+02
  -6.832  0.9789E-18  0.2000E+02
  -6.822  0.7695E-18  0.2000E+02
  -6.812  0.6045E-18  0.2000E+02
  -6.802  0.4745E-18  0.2000E+02
  -6.792  0.3723E-18  0.2000E+02
  -6.782  0.2919E-18  0.2000E+02
  -6.772  0.2287E-18  0.2000E+02
  -6.762  0.1790E-18  0.2000E+02
  -6.752  0.1401E-18  0.2000E+02
  -6.742  0.1095E-18  0.2000E+02
  -6.732  0.8560E-19  0.2000E+02
  -6.722  0.6685E-19  0.2000E+02
  -6.712  0.5217E-19  0.2000E+02
  -6.702  0.4068E-19  0.2000E+02
  -6.692  0.3171E-19  0.2000E+02
  -6.682  0.2470E-19  0.2000E+02
  -6.672  0.1922E-19  0.2000E+02
  -6.662  0.1495E-19  0.2000E+02
  -6.652  0.1162E-19  0.2000E+02
  -6.642  0.9027E-20  0.2000E+02
  -6.632  0.7008E-20  0.2000E+02
  -6.622  0.5436E-20  0.2000E+02
  -6.612  0.4215E-20  0.2000E+02
  -6.602  0.3265E-20  0.2000E+02
  -6.592  0.2528E-20  0.2000E+02
  -6.582  0.1956E-20  0.2000E+02
  -6.572  0.1512E-20  0.2000E+02
  -6.562  0.1169E-20  0.2000E+02
  -6.552  0.9023E-21  0.2000E+02
  -6.542  0.6963E-21  0.2000E+02
  -6.532  0.5370E-21  0.2000E+02
  -6.522  0.4138E-21  0.2000E+02
  -6.512  0.3187E-21  0.2000E+02
  -6.502  0.2453E-21  0.2000E+02
  -6.492  0.1887E-21  0.2000E+02
  -6.482  0.1450E-21  0.2000E+02
  -6.472  0.1114E-21  0.2000E+02
  -6.462  0.8549E-22  0.2000E+02
  -6.452  0.6558E-22  0.2000E+02
  -6.442  0.5027E-22  0.2000E+02
  -6.432  0.3851E-22  0.2000E+02
  -6.422  0.2948E-22  0.2000E+02
  -6.412  0.2256E-22  0.2000E+02
  -6.402  0.1725E-22  0.2000E+02
  -6.392  0.1318E-22  0.2000E+02
  -6.382  0.1006E-22  0.2000E+02
  -6.372  0.7677E-23  0.2000E+02
  -6.362  0.5854E-23  0.2000E+02
  -6.352  0.4461E-23  0.2000E+02
  -6.342  0.3397E-23  0.2000E+02
  -6.332  0.2585E-23  0.2000E+02
  -6.322  0.1966E-23  0.2000E+02
  -6.312  0.1494E-23  0.2000E+02
  -6.302  0.1135E-23  0.2000E+02
  -6.292  0.8614E-24  0.2000E+02
  -6.282  0.6534E-24  0.2000E+02
  -6.272  0.4953E-24  0.2000E+02
  -6.262  0.3752E-24  0.2000E+02
  -6.252  0.2840E-24  0.2000E+02
  -6.242  0.2148E-24  0.2000E+02
  -6.232  0.1624E-24  0.2000E+02
  -6.222  0.1227E-24  0.2000E+02
  -6.212  0.9264E-25  0.2000E+02
  -6.202  0.6989E-25  0.2000E+02
  -6.192  0.5270E-25  0.2000E+02
  -6.182  0.3971E-25  0.2000E+02
  -6.172  0.2990E-25  0.2000E+02
  -6.162  0.2250E-25  0.2000E+02
  -6.152  0.1692E-25  0.2000E+02
  -6.142  0.1271E-25  0.2000E+02
  -6.132  0.9549E-26  0.2000E+02
  -6.122  0.7166E-26  0.2000E+02
  -6.112  0.5375E-26  0.2000E+02
  -6.102  0.4028E-26  0.2000E+02
  -6.092  0.3017E-26  0.2000E+02
  -6.082  0.2258E-26  0.2000E+02
  -6.072  0.1689E-26  0.2000E+02
  -6.062  0.1263E-26  0.2000E+02
  -6.052  0.9433E-27  0.2000E+02
  -6.042  0.7042E-27  0.2000E+02
  -6.032  0.5254E-27  0.2000E+02
  -6.022  0.3917E-27  0.2000E+02
  -6.012  0.2918E-27  0.2000E+02
  -6.002  0.2173E-27  0.2000E+02
  -5.992  0.1617E-27  0.2000E+02
  -5.982  0.1202E-27  0.2000E+02
  -5.972  0.8931E-28  0.2000E+02
  -5.962  0.6632E-28  0.2000E+02
  -5.952  0.4922E-28  0.2000E+02
  -5.942  0.3650E-28  0.2000E+02
  -5.932  0.2705E-28  0.2000E+02
  -5.922  0.2003E-28  0.2000E+02
  -5.912  0.1483E-28  0.2000E+02
  -5.902  0.1096E-28  0.2000E+02
  -5.892  0.8104E-29  0.2000E+02
  -5.882  0.5986E-29  0.2000E+02
  -5.872  0.4419E-29  0.2000E+02
  -5.862  0.3259E-29  0.2000E+02
  -5.852  0.2403E-29  0.2000E+02
  -5.842  0.1770E-29  0.2000E+02
  -5.832  0.1303E-29  0.2000E+02
  -5.822  0.9586E-30  0.2000E+02
  -5.812  0.7048E-30  0.2000E+02
  -5.802  0.5178E-30  0.2000E+02
  -5.792  0.3802E-30  0.2000E+02
  -5.782  0.2790E-30  0.2000E+02
  -5.772  0.2045E-30  0.2000E+02
  -5.762  0.1499E-30  0.2000E+02
  -5.752  0.1098E-30  0.2000E+02
  -5.742  0.8032E-31  0.2000E+02
  -5.732  0.5874E-31  0.2000E+02
  -5.722  0.4293E-31  0.2000E+02
  -5.712  0.3135E-31  0.2000E+02
  -5.702  0.2288E-31  0.2000E+02
  -5.692  0.1669E-31  0.2000E+02
  -5.682  0.1216E-31  0.2000E+02
  -5.672  0.8860E-32  0.2000E+02
  -5.662  0.6449E-32  0.2000E+02
  -5.652  0.4691E-32  0.2000E+02
  -5.642  0.3410E-32  0.2000E+02
  -5.632  0.2477E-32  0.2000E+02
  -5.622  0.1798E-32  0.2000E+02
  -5.612  0.1305E-32  0.2000E+02
  -5.602  0.9459E-33  0.2000E+02
  -5.592  0.6853E-33  0.2000E+02
  -5.582  0.4962E-33  0.2000E+02
  -5.572  0.3590E-33  0.2000E+02
  -5.562  0.2596E-33  0.2000E+02
  -5.552  0.1876E-33  0.2000E+02
  -5.542  0.1355E-33  0.2000E+02
  -5.532  0.9775E-34  0.2000E+02
  -5.522  0.7050E-34  0.2000E+02
  -5.512  0.5080E-34  0.2000E+02
  -5.502  0.3659E-34  0.2000E+02
  -5.492  0.2633E-34  0.2000E+02
  -5.482  0.1894E-34  0.2000E+02
  -5.472  0.1361E-34  0.2000E+02
  -5.462  0.9778E-35  0.2000E+02
  -5.452  0.7019E-35  0.2000E+02
  -5.442  0.5035E-35  0.2000E+02
  -5.432  0.3609E-35  0.2000E+02
  -5.422  0.2586E-35  0.2000E+02
  -5.412  0.1852E-35  0.2000E+02
  -5.402  0.1325E-35  0.2000E+02
  -5.392  0.9483E-36  0.2000E+02
  -5.382  0.6787E-36  0.2000E+02
  -5.372  0.4862E-36  0.2000E+02
  -5.362  0.3492E-36  0.2000E+02
  -5.352  0.2522E-36  0.2000E+02
  -5.342  0.1842E-36  0.2000E+02
  -5.332  0.1375E-36  0.2000E+02
  -5.322  0.1067E-36  0.2000E+02
  -5.312  0.8821E-37  0.2000E+02
  -5.302  0.7995E-37  0.2000E+02
  -5.292  0.8089E-37  0.2000E+02
  -5.282  0.9106E-37  0.2000E+02
  -5.272  0.1115E-36  0.2000E+02
  -5.262  0.1445E-36  0.2000E+02
  -5.252  0.1935E-36  0.2000E+02
  -5.242  0.2638E-36  0.2000E+02
  -5.232  0.3630E-36  0.2000E+02
  -5.222  0.5019E-36  0.2000E+02
  -5.212  0.6952E-36  0.2000E+02
  -5.202  0.9638E-36  0.2000E+02
  -5.192  0.1336E-35  0.2000E+02
  -5.182  0.1851E-35  0.2000E+02
  -5.172  0.2565E-35  0.2000E+02
  -5.162  0.3550E-35  0.2000E+02
  -5.152  0.4912E-35  0.2000E+02
  -5.142  0.6790E-35  0.2000E+02
  -5.132  0.9382E-35  0.2000E+02
  -5.122  0.1295E-34  0.2000E+02
  -5.112  0.1787E-34  0.2000E+02
  -5.102  0.2464E-34  0.2000E+02
  -5.092  0.3396E-34  0.2000E+02
  -5.082  0.4676E-34  0.2000E+02
  -5.072  0.6435E-34  0.2000E+02
  -5.062  0.8848E-34  0.2000E+02
  -5.052  0.1216E-33  0.2000E+02
  -5.042  0.1670E-33  0.2000E+02
  -5.032  0.2292E-33  0.2000E+02
  -5.022  0.3143E-33  0.2000E+02
  -5.012  0.4307E-33  0.2000E+02
  -5.002  0.5899E-33  0.2000E+02
  -4.992  0.8074E-33  0.2000E+02
  -4.982  0.1104E-32  0.2000E+02
  -4.972  0.1509E-32  0.2000E+02
  -4.962  0.2062E-32  0.2000E+02
  -4.952  0.2814E-32  0.2000E+02
  -4.942  0.3838E-32  0.2000E+02
  -4.932  0.5232E-32  0.2000E+02
  -4.922  0.7127E-32  0.2000E+02
  -4.912  0.9702E-32  0.2000E+02
  -4.902  0.1320E-31  0.2000E+02
  -4.892  0.1794E-31  0.2000E+02
  -4.882  0.2438E-31  0.2000E+02
  -4.872  0.3309E-31  0.2000E+02
  -4.862  0.4490E-31  0.2000E+02
  -4.852  0.6087E-31  0.2000E+02
  -4.842  0.8247E-31  0.2000E+02
  -4.832  0.1117E-30  0.2000E+02
  -4.822  0.1511E-30  0.2000E+02
  -4.812  0.2043E-30  0.2000E+02
  -4.802  0.2760E-30  0.2000E+02
  -4.792  0.3727E-30  0.2000E+02
  -4.782  0.5029E-30  0.2000E+02
  -4.772  0.6782E-30  0.2000E+02
  -4.762  0.9139E-30  0.2000E+02
  -4.752  0.1231E-29  0.2000E+02
  -4.742  0.1656E-29  0.2000E+02
  -4.732  0.2227E-29  0.2000E+02
  -4.722  0.2993E-29  0.2000E+02
  -4.712  0.4020E-29  0.2000E+02
  -4.702  0.5396E-29  0.2000E+02
  -4.692  0.7237E-29  0.2000E+02
  -4.682  0.9699E-29  0.2000E+02
  -4.672  0.1299E-28  0.2000E+02
  -4.662  0.1739E-28  0.2000E+02
  -4.652  0.2326E-28  0.2000E+02
  -4.642  0.3109E-28  0.2000E+02
  -4.632  0.4153E-28  0.2000E+02
  -4.622  0.5544E-28  0.2000E+02
  -4.612  0.7395E-28  0.2000E+02
  -4.602  0.9858E-28  0.2000E+02
  -4.592  0.1313E-27  0.2000E+02
  -4.582  0.1748E-27  0.2000E+02
  -4.572  0.2326E-27  0.2000E+02
  -4.562  0.3092E-27  0.2000E+02
  -4.552  0.4108E-27  0.2000E+02
  -4.542  0.5455E-27  0.2000E+02
  -4.532  0.7237E-27  0.2000E+02
  -4.522  0.9596E-27  0.2000E+02
  -4.512  0.1271E-26  0.2000E+02
  -4.502  0.1684E-26  0.2000E+02
  -4.492  0.2228E-26  0.2000E+02
  -4.482  0.2946E-26  0.2000E+02
  -4.472  0.3893E-26  0.2000E+02
  -4.462  0.5140E-26  0.2000E+02
  -4.452  0.6784E-26  0.2000E+02
  -4.442  0.8946E-26  0.2000E+02
  -4.432  0.1179E-25  0.2000E+02
  -4.422  0.1553E-25  0.2000E+02
  -4.412  0.2043E-25  0.2000E+02
  -4.402  0.2687E-25  0.2000E+02
  -4.392  0.3532E-25  0.2000E+02
  -4.382  0.4639E-25  0.2000E+02
  -4.372  0.6089E-25  0.2000E+02
  -4.362  0.7987E-25  0.2000E+02
  -4.352  0.1047E-24  0.2000E+02
  -4.342  0.1371E-24  0.2000E+02
  -4.332  0.1795E-24  0.2000E+02
  -4.322  0.2348E-24  0.2000E+02
  -4.312  0.3070E-24  0.2000E+02
  -4.302  0.4010E-24  0.2000E+02
  -4.292  0.5235E-24  0.2000E+02
  -4.282  0.6829E-24  0.2000E+02
  -4.272  0.8903E-24  0.2000E+02
  -4.262  0.1160E-23  0.2000E+02
  -4.252  0.1510E-23  0.2000E+02
  -4.242  0.1965E-23  0.2000E+02
  -4.232  0.2555E-23  0.2000E+02
  -4.222  0.3319E-23  0.2000E+02
  -4.212  0.4310E-23  0.2000E+02
  -4.202  0.5592E-23  0.2000E+02
  -4.192  0.7251E-23  0.2000E+02
  -4.182  0.9396E-23  0.2000E+02
  -4.172  0.1217E-22  0.2000E+02
  -4.162  0.1575E-22  0.2000E+02
  -4.152  0.2036E-22  0.2000E+02
  -4.142  0.2631E-22  0.2000E+02
  -4.132  0.3398E-22  0.2000E+02
  -4.122  0.4386E-22  0.2000E+02
  -4.112  0.5656E-22  0.2000E+02
  -4.102  0.7290E-22  0.2000E+02
  -4.092  0.9389E-22  0.2000E+02
  -4.082  0.1208E-21  0.2000E+02
  -4.072  0.1554E-21  0.2000E+02
  -4.062  0.1998E-21  0.2000E+02
  -4.052  0.2566E-21  0.2000E+02
  -4.042  0.3294E-21  0.2000E+02
  -4.032  0.4225E-21  0.2000E+02
  -4.022  0.5416E-21  0.2000E+02
  -4.012  0.6939E-21  0.2000E+02
  -4.002  0.8882E-21  0.2000E+02
  -3.992  0.1136E-20  0.2000E+02
  -3.982  0.1453E-20  0.2000E+02
  -3.972  0.1856E-20  0.2000E+02
  -3.962  0.2369E-20  0.2000E+02
  -3.952  0.3023E-20  0.2000E+02
  -3.942  0.3854E-20  0.2000E+02
  -3.932  0.4911E-20  0.2000E+02
  -3.922  0.6253E-20  0.2000E+02
  -3.912  0.7956E-20  0.2000E+02
  -3.902  0.1012E-19  0.2000E+02
  -3.892  0.1285E-19  0.2000E+02
  -3.882  0.1632E-19  0.2000E+02
  -3.872  0.2071E-19  0.2000E+02
  -3.862  0.2627E-19  0.2000E+02
  -3.852  0.3329E-19  0.2000E+02
  -3.842  0.4215E-19  0.2000E+02
  -3.832  0.5335E-19  0.2000E+02
  -3.822  0.6747E-19  0.2000E+02
  -3.812  0.8526E-19  0.2000E+02
  -3.802  0.1077E-18  0.2000E+02
  -3.792  0.1359E-18  0.2000E+02
  -3.782  0.1714E-18  0.2000E+02
  -3.772  0.2161E-18  0.2000E+02
  -3.762  0.2722E-18  0.2000E+02
  -3.752  0.3426E-18  0.2000E+02
  -3.742  0.4309E-18  0.2000E+02
  -3.732  0.5417E-18  0.2000E+02
  -3.722  0.6804E-18  0.2000E+02
  -3.712  0.8541E-18  0.2000E+02
  -3.702  0.1072E-17  0.2000E+02
  -3.692  0.1343E-17  0.2000E+02
  -3.682  0.1683E-17  0.2000E+02
  -3.672  0.2107E-17  0.2000E+02
  -3.662  0.2636E-17  0.2000E+02
  -3.652  0.3295E-17  0.2000E+02
  -3.642  0.4117E-17  0.2000E+02
  -3.632  0.5141E-17  0.2000E+02
  -3.622  0.6414E-17  0.2000E+02
  -3.612  0.7998E-17  0.2000E+02
  -3.602  0.9965E-17  0.2000E+02
  -3.592  0.1241E-16  0.2000E+02
  -3.582  0.1544E-16  0.2000E+02
  -3.572  0.1920E-16  0.2000E+02
  -3.562  0.2386E-16  0.2000E+02
  -3.552  0.2963E-16  0.2000E+02
  -3.542  0.3677E-16  0.2000E+02
  -3.532  0.4560E-16  0.2000E+02
  -3.522  0.5652E-16  0.2000E+02
  -3.512  0.7000E-16  0.2000E+02
  -3.502  0.8663E-16  0.2000E+02
  -3.492  0.1071E-15  0.2000E+02
  -3.482  0.1324E-15  0.2000E+02
  -3.472  0.1636E-15  0.2000E+02
  -3.462  0.2019E-15  0.2000E+02
  -3.452  0.2490E-15  0.2000E+02
  -3.442  0.3070E-15  0.2000E+02
  -3.432  0.3781E-15  0.2000E+02
  -3.422  0.4655E-15  0.2000E+02
  -3.412  0.5726E-15  0.2000E+02
  -3.402  0.7039E-15  0.2000E+02
  -3.392  0.8648E-15  0.2000E+02
  -3.382  0.1062E-14  0.2000E+02
  -3.372  0.1302E-14  0.2000E+02
  -3.362  0.1597E-14  0.2000E+02
  -3.352  0.1956E-14  0.2000E+02
  -3.342  0.2395E-14  0.2000E+02
  -3.332  0.2931E-14  0.2000E+02
  -3.322  0.3583E-14  0.2000E+02
  -3.312  0.4378E-14  0.2000E+02
  -3.302  0.5346E-14  0.2000E+02
  -3.292  0.6524E-14  0.2000E+02
  -3.282  0.7955E-14  0.2000E+02
  -3.272  0.9694E-14  0.2000E+02
  -3.262  0.1180E-13  0.2000E+02
  -3.252  0.1437E-13  0.2000E+02
  -3.242  0.1747E-13  0.2000E+02
  -3.232  0.2123E-13  0.2000E+02
  -3.222  0.2578E-13  0.2000E+02
  -3.212  0.3129E-13  0.2000E+02
  -3.202  0.3795E-13  0.2000E+02
  -3.192  0.4600E-13  0.2000E+02
  -3.182  0.5572E-13  0.2000E+02
  -3.172  0.6744E-13  0.2000E+02
  -3.162  0.8157E-13  0.2000E+02
  -3.152  0.9860E-13  0.2000E+02
  -3.142  0.1191E-12  0.2000E+02
  -3.132  0.1438E-12  0.2000E+02
  -3.122  0.1734E-12  0.2000E+02
  -3.112  0.2091E-12  0.2000E+02
  -3.102  0.2518E-12  0.2000E+02
  -3.092  0.3032E-12  0.2000E+02
  -3.082  0.3647E-12  0.2000E+02
  -3.072  0.4385E-12  0.2000E+02
  -3.062  0.5268E-12  0.2000E+02
  -3.052  0.6325E-12  0.2000E+02
  -3.042  0.7589E-12  0.2000E+02
  -3.032  0.9099E-12  0.2000E+02
  -3.022  0.1090E-11  0.2000E+02
  -3.012  0.1305E-11  0.2000E+02
  -3.002  0.1562E-11  0.2000E+02
  -2.992  0.1868E-11  0.2000E+02
  -2.982  0.2232E-11  0.2000E+02
  -2.972  0.2665E-11  0.2000E+02
  -2.962  0.3181E-11  0.2000E+02
  -2.952  0.3793E-11  0.2000E+02
  -2.942  0.4520E-11  0.2000E+02
  -2.932  0.5383E-11  0.2000E+02
  -2.922  0.6406E-11  0.2000E+02
  -2.912  0.7619E-11  0.2000E+02
  -2.902  0.9056E-11  0.2000E+02
  -2.892  0.1076E-10  0.2000E+02
  -2.882  0.1277E-10  0.2000E+02
  -2.872  0.1514E-10  0.2000E+02
  -2.862  0.1795E-10  0.2000E+02
  -2.852  0.2126E-10  0.2000E+02
  -2.842  0.2516E-10  0.2000E+02
  -2.832  0.2977E-10  0.2000E+02
  -2.822  0.3519E-10  0.2000E+02
  -2.812  0.4157E-10  0.2000E+02
  -2.802  0.4907E-10  0.2000E+02
  -2.792  0.5789E-10  0.2000E+02
  -2.782  0.6825E-10  0.2000E+02
  -2.772  0.8041E-10  0.2000E+02
  -2.762  0.9466E-10  0.2000E+02
  -2.752  0.1114E-09  0.2000E+02
  -2.742  0.1309E-09  0.2000E+02
  -2.732  0.1539E-09  0.2000E+02
  -2.722  0.1807E-09  0.2000E+02
  -2.712  0.2120E-09  0.2000E+02
  -2.702  0.2486E-09  0.2000E+02
  -2.692  0.2913E-09  0.2000E+02
  -2.682  0.3411E-09  0.2000E+02
  -2.672  0.3991E-09  0.2000E+02
  -2.662  0.4667E-09  0.2000E+02
  -2.652  0.5454E-09  0.2000E+02
  -2.642  0.6370E-09  0.2000E+02
  -2.632  0.7434E-09  0.2000E+02
  -2.622  0.8669E-09  0.2000E+02
  -2.612  0.1010E-08  0.2000E+02
  -2.602  0.1177E-08  0.2000E+02
  -2.592  0.1370E-08  0.2000E+02
  -2.582  0.1593E-08  0.2000E+02
  -2.572  0.1852E-08  0.2000E+02
  -2.562  0.2151E-08  0.2000E+02
  -2.552  0.2497E-08  0.2000E+02
  -2.542  0.2896E-08  0.2000E+02
  -2.532  0.3357E-08  0.2000E+02
  -2.522  0.3889E-08  0.2000E+02
  -2.512  0.4502E-08  0.2000E+02
  -2.502  0.5208E-08  0.2000E+02
  -2.492  0.6021E-08  0.2000E+02
  -2.482  0.6956E-08  0.2000E+02
  -2.472  0.8031E-08  0.2000E+02
  -2.462  0.9265E-08  0.2000E+02
  -2.452  0.1068E-07  0.2000E+02
  -2.442  0.1231E-07  0.2000E+02
  -2.432  0.1417E-07  0.2000E+02
  -2.422  0.1631E-07  0.2000E+02
  -2.412  0.1875E-07  0.2000E+02
  -2.402  0.2154E-07  0.2000E+02
  -2.392  0.2474E-07  0.2000E+02
  -2.382  0.2839E-07  0.2000E+02
  -2.372  0.3256E-07  0.2000E+02
  -2.362  0.3731E-07  0.2000E+02
  -2.352  0.4272E-07  0.2000E+02
  -2.342  0.4890E-07  0.2000E+02
  -2.332  0.5592E-07  0.2000E+02
  -2.322  0.6391E-07  0.2000E+02
  -2.312  0.7299E-07  0.2000E+02
  -2.302  0.8331E-07  0.2000E+02
  -2.292  0.9502E-07  0.2000E+02
  -2.282  0.1083E-06  0.2000E+02
  -2.272  0.1234E-06  0.2000E+02
  -2.262  0.1404E-06  0.2000E+02
  -2.252  0.1597E-06  0.2000E+02
  -2.242  0.1816E-06  0.2000E+02
  -2.232  0.2063E-06  0.2000E+02
  -2.222  0.2342E-06  0.2000E+02
  -2.212  0.2657E-06  0.2000E+02
  -2.202  0.3012E-06  0.2000E+02
  -2.192  0.3412E-06  0.2000E+02
  -2.182  0.3863E-06  0.2000E+02
  -2.172  0.4371E-06  0.2000E+02
  -2.162  0.4941E-06  0.2000E+02
  -2.152  0.5583E-06  0.2000E+02
  -2.142  0.6304E-06  0.2000E+02
  -2.132  0.7113E-06  0.2000E+02
  -2.122  0.8021E-06  0.2000E+02
  -2.112  0.9038E-06  0.2000E+02
  -2.102  0.1018E-05  0.2000E+02
  -2.092  0.1145E-05  0.2000E+02
  -2.082  0.1288E-05  0.2000E+02
  -2.072  0.1447E-05  0.2000E+02
  -2.062  0.1626E-05  0.2000E+02
  -2.052  0.1824E-05  0.2000E+02
  -2.042  0.2046E-05  0.2000E+02
  -2.032  0.2293E-05  0.2000E+02
  -2.022  0.2569E-05  0.2000E+02
  -2.012  0.2875E-05  0.2000E+02
  -2.002  0.3216E-05  0.2000E+02
  -1.992  0.3595E-05  0.2000E+02
  -1.982  0.4015E-05  0.2000E+02
  -1.972  0.4482E-05  0.2000E+02
  -1.962  0.5000E-05  0.2000E+02
  -1.952  0.5574E-05  0.2000E+02
  -1.942  0.6210E-05  0.2000E+02
  -1.932  0.6913E-05  0.2000E+02
  -1.922  0.7691E-05  0.2000E+02
  -1.912  0.8551E-05  0.2000E+02
  -1.902  0.9501E-05  0.2000E+02
  -1.892  0.1055E-04  0.2000E+02
  -1.882  0.1170E-04  0.2000E+02
  -1.872  0.1298E-04  0.2000E+02
  -1.862  0.1438E-04  0.2000E+02
  -1.852  0.1592E-04  0.2000E+02
  -1.842  0.1762E-04  0.2000E+02
  -1.832  0.1949E-04  0.2000E+02
  -1.822  0.2154E-04  0.2000E+02
  -1.812  0.2378E-04  0.2000E+02
  -1.802  0.2625E-04  0.2000E+02
  -1.792  0.2895E-04  0.2000E+02
  -1.782  0.3191E-04  0.2000E+02
  -1.772  0.3515E-04  0.2000E+02
  -1.762  0.3868E-04  0.2000E+02
  -1.752  0.4255E-04  0.2000E+02
  -1.742  0.4678E-04  0.2000E+02
  -1.732  0.5138E-04  0.2000E+02
  -1.722  0.5641E-04  0.2000E+02
  -1.712  0.6188E-04  0.2000E+02
  -1.702  0.6784E-04  0.2000E+02
  -1.692  0.7433E-04  0.2000E+02
  -1.682  0.8138E-04  0.2000E+02
  -1.672  0.8904E-04  0.2000E+02
  -1.662  0.9736E-04  0.2000E+02
  -1.652  0.1064E-03  0.2000E+02
  -1.642  0.1162E-03  0.2000E+02
  -1.632  0.1268E-03  0.2000E+02
  -1.622  0.1382E-03  0.2000E+02
  -1.612  0.1507E-03  0.2000E+02
  -1.602  0.1641E-03  0.2000E+02
  -1.592  0.1786E-03  0.2000E+02
  -1.582  0.1942E-03  0.2000E+02
  -1.572  0.2111E-03  0.2000E+02
  -1.562  0.2293E-03  0.2000E+02
  -1.552  0.2489E-03  0.2000E+02
  -1.542  0.2700E-03  0.2000E+02
  -1.532  0.2928E-03  0.2000E+02
  -1.522  0.3172E-03  0.2000E+02
  -1.512  0.3434E-03  0.2000E+02
  -1.502  0.3715E-03  0.2000E+02
  -1.492  0.4017E-03  0.2000E+02
  -1.482  0.4341E-03  0.2000E+02
  -1.472  0.4688E-03  0.2000E+02
  -1.462  0.5059E-03  0.2000E+02
  -1.452  0.5455E-03  0.2000E+02
  -1.442  0.5880E-03  0.2000E+02
  -1.432  0.6333E-03  0.2000E+02
  -1.422  0.6817E-03  0.2000E+02
  -1.412  0.7332E-03  0.2000E+02
  -1.402  0.7882E-03  0.2000E+02
  -1.392  0.8468E-03  0.2000E+02
  -1.382  0.9091E-03  0.2000E+02
  -1.372  0.9754E-03  0.2000E+02
  -1.362  0.1046E-02  0.2000E+02
  -1.352  0.1121E-02  0.2000E+02
  -1.342  0.1200E-02  0.2000E+02
  -1.332  0.1284E-02  0.2000E+02
  -1.322  0.1374E-02  0.2000E+02
  -1.312  0.1468E-02  0.2000E+02
  -1.302  0.1569E-02  0.2000E+02
  -1.292  0.1674E-02  0.2000E+02
  -1.282  0.1786E-02  0.2000E+02
  -1.272  0.1905E-02  0.2000E+02
  -1.262  0.2029E-02  0.2000E+02
  -1.252  0.2161E-02  0.2000E+02
  -1.242  0.2300E-02  0.2000E+02
  -1.232  0.2446E-02  0.2000E+02
  -1.222  0.2600E-02  0.2000E+02
  -1.212  0.2762E-02  0.2000E+02
  -1.202  0.2932E-02  0.2000E+02
  -1.192  0.3111E-02  0.2000E+02
  -1.182  0.3298E-02  0.2000E+02
  -1.172  0.3495E-02  0.2000E+02
  -1.162  0.3702E-02  0.2000E+02
  -1.152  0.3918E-02  0.2000E+02
  -1.142  0.4145E-02  0.2000E+02
  -1.132  0.4382E-02  0.2000E+02
  -1.122  0.4629E-02  0.2000E+02
  -1.112  0.4888E-02  0.2000E+02
  -1.102  0.5159E-02  0.2000E+02
  -1.092  0.5441E-02  0.2000E+02
  -1.082  0.5736E-02  0.2000E+02
  -1.072  0.6043E-02  0.2000E+02
  -1.062  0.6363E-02  0.2000E+02
  -1.052  0.6696E-02  0.2000E+02
  -1.042  0.7042E-02  0.2000E+02
  -1.032  0.7402E-02  0.2000E+02
  -1.022  0.7777E-02  0.2000E+02
  -1.012  0.8166E-02  0.2000E+02
  -1.002  0.8569E-02  0.2000E+02
  -0.992  0.8988E-02  0.2000E+02
  -0.982  0.9422E-02  0.2000E+02
  -0.972  0.9872E-02  0.2000E+02
  -0.962  0.1034E-01  0.2000E+02
  -0.952  0.1082E-01  0.2000E+02
  -0.942  0.1132E-01  0.2000E+02
  -0.932  0.1184E-01  0.2000E+02
  -0.922  0.1237E-01  0.2000E+02
  -0.912  0.1292E-01  0.2000E+02
  -0.902  0.1349E-01  0.2000E+02
  -0.892  0.1407E-01  0.2000E+02
  -0.882  0.1468E-01  0.2000E+02
  -0.872  0.1530E-01  0.2000E+02
  -0.862  0.1594E-01  0.2000E+02
  -0.852  0.1661E-01  0.2000E+02
  -0.842  0.1729E-01  0.2000E+02
  -0.832  0.1799E-01  0.2000E+02
  -0.822  0.1871E-01  0.2000E+02
  -0.812  0.1945E-01  0.2000E+02
  -0.802  0.2021E-01  0.2000E+02
  -0.792  0.2099E-01  0.2000E+02
  -0.782  0.2179E-01  0.2000E+02
  -0.772  0.2262E-01  0.2000E+02
  -0.762  0.2346E-01  0.2001E+02
  -0.752  0.2433E-01  0.2001E+02
  -0.742  0.2522E-01  0.2001E+02
  -0.732  0.2613E-01  0.2001E+02
  -0.722  0.2706E-01  0.2001E+02
  -0.712  0.2801E-01  0.2001E+02
  -0.702  0.2899E-01  0.2001E+02
  -0.692  0.2999E-01  0.2001E+02
  -0.682  0.3102E-01  0.2001E+02
  -0.672  0.3206E-01  0.2001E+02
  -0.662  0.3313E-01  0.2001E+02
  -0.652  0.3423E-01  0.2001E+02
  -0.642  0.3535E-01  0.2001E+02
  -0.632  0.3649E-01  0.2001E+02
  -0.622  0.3766E-01  0.2001E+02
  -0.612  0.3885E-01  0.2001E+02
  -0.602  0.4007E-01  0.2001E+02
  -0.592  0.4131E-01  0.2001E+02
  -0.582  0.4257E-01  0.2001E+02
  -0.572  0.4387E-01  0.2001E+02
  -0.562  0.4519E-01  0.2001E+02
  -0.552  0.4653E-01  0.2001E+02
  -0.542  0.4790E-01  0.2001E+02
  -0.532  0.4930E-01  0.2001E+02
  -0.522  0.5073E-01  0.2001E+02
  -0.512  0.5218E-01  0.2001E+02
  -0.502  0.5366E-01  0.2002E+02
  -0.492  0.5517E-01  0.2002E+02
  -0.482  0.5670E-01  0.2002E+02
  -0.472  0.5827E-01  0.2002E+02
  -0.462  0.5986E-01  0.2002E+02
  -0.452  0.6148E-01  0.2002E+02
  -0.442  0.6313E-01  0.2002E+02
  -0.432  0.6481E-01  0.2002E+02
  -0.422  0.6651E-01  0.2002E+02
  -0.412  0.6825E-01  0.2002E+02
  -0.402  0.7002E-01  0.2002E+02
  -0.392  0.7181E-01  0.2002E+02
  -0.382  0.7364E-01  0.2002E+02
  -0.372  0.7550E-01  0.2002E+02
  -0.362  0.7738E-01  0.2002E+02
  -0.352  0.7930E-01  0.2003E+02
  -0.342  0.8125E-01  0.2003E+02
  -0.332  0.8323E-01  0.2003E+02
  -0.322  0.8524E-01  0.2003E+02
  -0.312  0.8728E-01  0.2003E+02
  -0.302  0.8936E-01  0.2003E+02
  -0.292  0.9146E-01  0.2003E+02
  -0.282  0.9360E-01  0.2003E+02
  -0.272  0.9577E-01  0.2003E+02
  -0.262  0.9797E-01  0.2003E+02
  -0.252  0.1002E+00  0.2003E+02
  -0.242  0.1025E+00  0.2004E+02
  -0.232  0.1048E+00  0.2004E+02
  -0.222  0.1071E+00  0.2004E+02
  -0.212  0.1094E+00  0.2004E+02
  -0.202  0.1118E+00  0.2004E+02
  -0.192  0.1143E+00  0.2004E+02
  -0.182  0.1167E+00  0.2004E+02
  -0.172  0.1192E+00  0.2004E+02
  -0.162  0.1217E+00  0.2004E+02
  -0.152  0.1243E+00  0.2005E+02
  -0.142  0.1269E+00  0.2005E+02
  -0.132  0.1295E+00  0.2005E+02
  -0.122  0.1321E+00  0.2005E+02
  -0.112  0.1348E+00  0.2005E+02
  -0.102  0.1375E+00  0.2005E+02
  -0.092  0.1403E+00  0.2005E+02
  -0.082  0.1431E+00  0.2005E+02
  -0.072  0.1459E+00  0.2006E+02
  -0.062  0.1487E+00  0.2006E+02
  -0.052  0.1516E+00  0.2006E+02
  -0.042  0.1545E+00  0.2006E+02
  -0.032  0.1574E+00  0.2006E+02
  -0.022  0.1604E+00  0.2006E+02
  -0.012  0.1634E+00  0.2007E+02
  -0.002  0.1665E+00  0.2007E+02
   0.008  0.1696E+00  0.2007E+02
   0.018  0.1727E+00  0.2007E+02
   0.028  0.1758E+00  0.2007E+02
   0.038  0.1790E+00  0.2007E+02
   0.048  0.1822E+00  0.2008E+02
   0.058  0.1855E+00  0.2008E+02
   0.068  0.1887E+00  0.2008E+02
   0.078  0.1921E+00  0.2008E+02
   0.088  0.1954E+00  0.2008E+02
   0.098  0.1988E+00  0.2009E+02
   0.108  0.2022E+00  0.2009E+02
   0.118  0.2057E+00  0.2009E+02
   0.128  0.2092E+00  0.2009E+02
   0.138  0.2127E+00  0.2009E+02
   0.148  0.2163E+00  0.2010E+02
   0.158  0.2199E+00  0.2010E+02
   0.168  0.2235E+00  0.2010E+02
   0.178  0.2272E+00  0.2010E+02
   0.188  0.2309E+00  0.2011E+02
   0.198  0.2347E+00  0.2011E+02
   0.208  0.2384E+00  0.2011E+02
   0.218  0.2423E+00  0.2011E+02
   0.228  0.2461E+00  0.2011E+02
   0.238  0.2500E+00  0.2012E+02
   0.248  0.2539E+00  0.2012E+02
   0.258  0.2578E+00  0.2012E+02
   0.268  0.2618E+00  0.2013E+02
   0.278  0.2658E+00  0.2013E+02
   0.288  0.2698E+00  0.2013E+02
   0.298  0.2739E+00  0.2013E+02
   0.308  0.2780E+00  0.2014E+02
   0.318  0.2821E+00  0.2014E+02
   0.328  0.2862E+00  0.2014E+02
   0.338  0.2903E+00  0.2014E+02
   0.348  0.2945E+00  0.2015E+02
   0.358  0.2986E+00  0.2015E+02
   0.368  0.3028E+00  0.2015E+02
   0.378  0.3070E+00  0.2016E+02
   0.388  0.3112E+00  0.2016E+02
   0.398  0.3154E+00  0.2016E+02
   0.408  0.3196E+00  0.2017E+02
   0.418  0.3238E+00  0.2017E+02
   0.428  0.3279E+00  0.2017E+02
   0.438  0.3321E+00  0.2018E+02
   0.448  0.3362E+00  0.2018E+02
   0.458  0.3403E+00  0.2018E+02
   0.468  0.3444E+00  0.2019E+02
   0.478  0.3485E+00  0.2019E+02
   0.488  0.3525E+00  0.2019E+02
   0.498  0.3565E+00  0.2020E+02
   0.508  0.3604E+00  0.2020E+02
   0.518  0.3643E+00  0.2020E+02
   0.528  0.3681E+00  0.2021E+02
   0.538  0.3718E+00  0.2021E+02
   0.548  0.3755E+00  0.2022E+02
   0.558  0.3791E+00  0.2022E+02
   0.568  0.3827E+00  0.2022E+02
   0.578  0.3861E+00  0.2023E+02
   0.588  0.3894E+00  0.2023E+02
   0.598  0.3927E+00  0.2023E+02
   0.608  0.3958E+00  0.2024E+02
   0.618  0.3989E+00  0.2024E+02
   0.628  0.4018E+00  0.2025E+02
   0.638  0.4046E+00  0.2025E+02
   0.648  0.4072E+00  0.2025E+02
   0.658  0.4098E+00  0.2026E+02
   0.668  0.4122E+00  0.2026E+02
   0.678  0.4144E+00  0.2027E+02
   0.688  0.4165E+00  0.2027E+02
   0.698  0.4185E+00  0.2028E+02
   0.708  0.4203E+00  0.2028E+02
   0.718  0.4220E+00  0.2028E+02
   0.728  0.4235E+00  0.2029E+02
   0.738  0.4248E+00  0.2029E+02
   0.748  0.4259E+00  0.2030E+02
   0.758  0.4269E+00  0.2030E+02
   0.768  0.4277E+00  0.2030E+02
   0.778  0.4284E+00  0.2031E+02
   0.788  0.4288E+00  0.2031E+02
   0.798  0.4291E+00  0.2032E+02
   0.808  0.4292E+00  0.2032E+02
   0.818  0.4292E+00  0.2033E+02
   0.828  0.4289E+00  0.2033E+02
   0.838  0.4285E+00  0.2033E+02
   0.848  0.4280E+00  0.2034E+02
   0.858  0.4272E+00  0.2034E+02
   0.868  0.4263E+00  0.2035E+02
   0.878  0.4252E+00  0.2035E+02
   0.888  0.4240E+00  0.2036E+02
   0.898  0.4226E+00  0.2036E+02
   0.908  0.4210E+00  0.2036E+02
   0.918  0.4193E+00  0.2037E+02
   0.928  0.4175E+00  0.2037E+02
   0.938  0.4156E+00  0.2038E+02
   0.948  0.4135E+00  0.2038E+02
   0.958  0.4113E+00  0.2039E+02
   0.968  0.4090E+00  0.2039E+02
   0.978  0.4065E+00  0.2039E+02
   0.988  0.4040E+00  0.2040E+02
   0.998  0.4014E+00  0.2040E+02
   1.008  0.3988E+00  0.2041E+02
   1.018  0.3961E+00  0.2041E+02
   1.028  0.3933E+00  0.2041E+02
   1.038  0.3905E+00  0.2042E+02
   1.048  0.3876E+00  0.2042E+02
   1.058  0.3847E+00  0.2043E+02
   1.068  0.3819E+00  0.2043E+02
   1.078  0.3790E+00  0.2043E+02
   1.088  0.3761E+00  0.2044E+02
   1.098  0.3733E+00  0.2044E+02
   1.108  0.3705E+00  0.2044E+02
   1.118  0.3678E+00  0.2045E+02
   1.128  0.3651E+00  0.2045E+02
   1.138  0.3625E+00  0.2045E+02
   1.148  0.3601E+00  0.2046E+02
   1.158  0.3577E+00  0.2046E+02
   1.168  0.3554E+00  0.2047E+02
   1.178  0.3533E+00  0.2047E+02
   1.188  0.3513E+00  0.2047E+02
   1.198  0.3494E+00  0.2048E+02
   1.208  0.3477E+00  0.2048E+02
   1.218  0.3462E+00  0.2048E+02
   1.228  0.3449E+00  0.2049E+02
   1.238  0.3438E+00  0.2049E+02
   1.248  0.3429E+00  0.2049E+02
   1.258  0.3422E+00  0.2050E+02
   1.268  0.3418E+00  0.2050E+02
   1.278  0.3416E+00  0.2050E+02
   1.288  0.3416E+00  0.2051E+02
   1.298  0.3419E+00  0.2051E+02
   1.308  0.3425E+00  0.2051E+02
   1.318  0.3433E+00  0.2052E+02
   1.328  0.3445E+00  0.2052E+02
   1.338  0.3459E+00  0.2052E+02
   1.348  0.3476E+00  0.2053E+02
   1.358  0.3496E+00  0.2053E+02
   1.368  0.3519E+00  0.2053E+02
   1.378  0.3544E+00  0.2054E+02
   1.388  0.3573E+00  0.2054E+02
   1.398  0.3606E+00  0.2055E+02
   1.408  0.3641E+00  0.2055E+02
   1.418  0.3679E+00  0.2055E+02
   1.428  0.3720E+00  0.2056E+02
   1.438  0.3765E+00  0.2056E+02
   1.448  0.3812E+00  0.2056E+02
   1.458  0.3863E+00  0.2057E+02
   1.468  0.3916E+00  0.2057E+02
   1.478  0.3973E+00  0.2058E+02
   1.488  0.4032E+00  0.2058E+02
   1.498  0.4094E+00  0.2058E+02
   1.508  0.4159E+00  0.2059E+02
   1.518  0.4227E+00  0.2059E+02
   1.528  0.4297E+00  0.2060E+02
   1.538  0.4370E+00  0.2060E+02
   1.548  0.4446E+00  0.2061E+02
   1.558  0.4523E+00  0.2061E+02
   1.568  0.4603E+00  0.2061E+02
   1.578  0.4685E+00  0.2062E+02
   1.588  0.4769E+00  0.2062E+02
   1.598  0.4855E+00  0.2063E+02
   1.608  0.4942E+00  0.2063E+02
   1.618  0.5032E+00  0.2064E+02
   1.628  0.5122E+00  0.2064E+02
   1.638  0.5214E+00  0.2065E+02
   1.648  0.5307E+00  0.2065E+02
   1.658  0.5402E+00  0.2066E+02
   1.668  0.5496E+00  0.2067E+02
   1.678  0.5592E+00  0.2067E+02
   1.688  0.5688E+00  0.2068E+02
   1.698  0.5785E+00  0.2068E+02
   1.708  0.5882E+00  0.2069E+02
   1.718  0.5978E+00  0.2069E+02
   1.728  0.6075E+00  0.2070E+02
   1.738  0.6171E+00  0.2071E+02
   1.748  0.6267E+00  0.2071E+02
   1.758  0.6363E+00  0.2072E+02
   1.768  0.6457E+00  0.2073E+02
   1.778  0.6550E+00  0.2073E+02
   1.788  0.6643E+00  0.2074E+02
   1.798  0.6734E+00  0.2075E+02
   1.808  0.6823E+00  0.2075E+02
   1.818  0.6911E+00  0.2076E+02
   1.828  0.6997E+00  0.2077E+02
   1.838  0.7081E+00  0.2077E+02
   1.848  0.7163E+00  0.2078E+02
   1.858  0.7243E+00  0.2079E+02
   1.868  0.7320E+00  0.2080E+02
   1.878  0.7395E+00  0.2080E+02
   1.888  0.7468E+00  0.2081E+02
   1.898  0.7537E+00  0.2082E+02
   1.908  0.7604E+00  0.2083E+02
   1.918  0.7668E+00  0.2083E+02
   1.928  0.7729E+00  0.2084E+02
   1.938  0.7786E+00  0.2085E+02
   1.948  0.7841E+00  0.2086E+02
   1.958  0.7892E+00  0.2086E+02
   1.968  0.7940E+00  0.2087E+02
   1.978  0.7984E+00  0.2088E+02
   1.988  0.8025E+00  0.2089E+02
   1.998  0.8062E+00  0.2090E+02
   2.008  0.8095E+00  0.2090E+02
   2.018  0.8126E+00  0.2091E+02
   2.028  0.8152E+00  0.2092E+02
   2.038  0.8175E+00  0.2093E+02
   2.048  0.8194E+00  0.2094E+02
   2.058  0.8209E+00  0.2095E+02
   2.068  0.8221E+00  0.2095E+02
   2.078  0.8229E+00  0.2096E+02
   2.088  0.8234E+00  0.2097E+02
   2.098  0.8235E+00  0.2098E+02
   2.108  0.8232E+00  0.2099E+02
   2.118  0.8226E+00  0.2099E+02
   2.128  0.8217E+00  0.2100E+02
   2.138  0.8204E+00  0.2101E+02
   2.148  0.8188E+00  0.2102E+02
   2.158  0.8169E+00  0.2103E+02
   2.168  0.8146E+00  0.2104E+02
   2.178  0.8120E+00  0.2104E+02
   2.188  0.8092E+00  0.2105E+02
   2.198  0.8060E+00  0.2106E+02
   2.208  0.8026E+00  0.2107E+02
   2.218  0.7989E+00  0.2108E+02
   2.228  0.7950E+00  0.2108E+02
   2.238  0.7908E+00  0.2109E+02
   2.248  0.7864E+00  0.2110E+02
   2.258  0.7818E+00  0.2111E+02
   2.268  0.7769E+00  0.2111E+02
   2.278  0.7719E+00  0.2112E+02
   2.288  0.7666E+00  0.2113E+02
   2.298  0.7612E+00  0.2114E+02
   2.308  0.7557E+00  0.2115E+02
   2.318  0.7500E+00  0.2115E+02
   2.328  0.7442E+00  0.2116E+02
   2.338  0.7382E+00  0.2117E+02
   2.348  0.7322E+00  0.2118E+02
   2.358  0.7261E+00  0.2118E+02
   2.368  0.7198E+00  0.2119E+02
   2.378  0.7136E+00  0.2120E+02
   2.388  0.7072E+00  0.2120E+02
   2.398  0.7009E+00  0.2121E+02
   2.408  0.6945E+00  0.2122E+02
   2.418  0.6881E+00  0.2122E+02
   2.428  0.6817E+00  0.2123E+02
   2.438  0.6753E+00  0.2124E+02
   2.448  0.6689E+00  0.2124E+02
   2.458  0.6626E+00  0.2125E+02
   2.468  0.6563E+00  0.2126E+02
   2.478  0.6501E+00  0.2126E+02
   2.488  0.6439E+00  0.2127E+02
   2.498  0.6379E+00  0.2128E+02
   2.508  0.6319E+00  0.2128E+02
   2.518  0.6260E+00  0.2129E+02
   2.528  0.6202E+00  0.2130E+02
   2.538  0.6145E+00  0.2130E+02
   2.548  0.6089E+00  0.2131E+02
   2.558  0.6034E+00  0.2131E+02
   2.568  0.5981E+00  0.2132E+02
   2.578  0.5930E+00  0.2133E+02
   2.588  0.5879E+00  0.2133E+02
   2.598  0.5830E+00  0.2134E+02
   2.608  0.5783E+00  0.2134E+02
   2.618  0.5738E+00  0.2135E+02
   2.628  0.5693E+00  0.2136E+02
   2.638  0.5651E+00  0.2136E+02
   2.648  0.5610E+00  0.2137E+02
   2.658  0.5571E+00  0.2137E+02
   2.668  0.5534E+00  0.2138E+02
   2.678  0.5498E+00  0.2138E+02
   2.688  0.5464E+00  0.2139E+02
   2.698  0.5432E+00  0.2139E+02
   2.708  0.5402E+00  0.2140E+02
   2.718  0.5373E+00  0.2140E+02
   2.728  0.5346E+00  0.2141E+02
   2.738  0.5320E+00  0.2142E+02
   2.748  0.5297E+00  0.2142E+02
   2.758  0.5275E+00  0.2143E+02
   2.768  0.5255E+00  0.2143E+02
   2.778  0.5236E+00  0.2144E+02
   2.788  0.5219E+00  0.2144E+02
   2.798  0.5203E+00  0.2145E+02
   2.808  0.5190E+00  0.2145E+02
   2.818  0.5177E+00  0.2146E+02
   2.828  0.5166E+00  0.2146E+02
   2.838  0.5157E+00  0.2147E+02
   2.848  0.5149E+00  0.2147E+02
   2.858  0.5142E+00  0.2148E+02
   2.868  0.5136E+00  0.2148E+02
   2.878  0.5132E+00  0.2149E+02
   2.888  0.5129E+00  0.2149E+02
   2.898  0.5128E+00  0.2150E+02
   2.908  0.5127E+00  0.2150E+02
   2.918  0.5128E+00  0.2151E+02
   2.928  0.5130E+00  0.2151E+02
   2.938  0.5133E+00  0.2152E+02
   2.948  0.5137E+00  0.2152E+02
   2.958  0.5142E+00  0.2153E+02
   2.968  0.5147E+00  0.2153E+02
   2.978  0.5154E+00  0.2154E+02
   2.988  0.5162E+00  0.2154E+02
   2.998  0.5171E+00  0.2155E+02
   3.008  0.5180E+00  0.2156E+02
   3.018  0.5191E+00  0.2156E+02
   3.028  0.5202E+00  0.2157E+02
   3.038  0.5214E+00  0.2157E+02
   3.048  0.5227E+00  0.2158E+02
   3.058  0.5241E+00  0.2158E+02
   3.068  0.5255E+00  0.2159E+02
   3.078  0.5271E+00  0.2159E+02
   3.088  0.5287E+00  0.2160E+02
   3.098  0.5304E+00  0.2160E+02
   3.108  0.5322E+00  0.2161E+02
   3.118  0.5341E+00  0.2161E+02
   3.128  0.5360E+00  0.2162E+02
   3.138  0.5380E+00  0.2162E+02
   3.148  0.5402E+00  0.2163E+02
   3.158  0.5424E+00  0.2163E+02
   3.168  0.5447E+00  0.2164E+02
   3.178  0.5471E+00  0.2165E+02
   3.188  0.5496E+00  0.2165E+02
   3.198  0.5522E+00  0.2166E+02
   3.208  0.5549E+00  0.2166E+02
   3.218  0.5577E+00  0.2167E+02
   3.228  0.5606E+00  0.2167E+02
   3.238  0.5637E+00  0.2168E+02
   3.248  0.5668E+00  0.2168E+02
   3.258  0.5701E+00  0.2169E+02
   3.268  0.5735E+00  0.2170E+02
   3.278  0.5771E+00  0.2170E+02
   3.288  0.5807E+00  0.2171E+02
   3.298  0.5845E+00  0.2171E+02
   3.308  0.5885E+00  0.2172E+02
   3.318  0.5926E+00  0.2173E+02
   3.328  0.5968E+00  0.2173E+02
   3.338  0.6012E+00  0.2174E+02
   3.348  0.6058E+00  0.2174E+02
   3.358  0.6105E+00  0.2175E+02
   3.368  0.6154E+00  0.2176E+02
   3.378  0.6205E+00  0.2176E+02
   3.388  0.6257E+00  0.2177E+02
   3.398  0.6311E+00  0.2177E+02
   3.408  0.6367E+00  0.2178E+02
   3.418  0.6425E+00  0.2179E+02
   3.428  0.6484E+00  0.2179E+02
   3.438  0.6545E+00  0.2180E+02
   3.448  0.6608E+00  0.2181E+02
   3.458  0.6673E+00  0.2181E+02
   3.468  0.6740E+00  0.2182E+02
   3.478  0.6809E+00  0.2183E+02
   3.488  0.6879E+00  0.2183E+02
   3.498  0.6951E+00  0.2184E+02
   3.508  0.7026E+00  0.2185E+02
   3.518  0.7102E+00  0.2185E+02
   3.528  0.7179E+00  0.2186E+02
   3.538  0.7259E+00  0.2187E+02
   3.548  0.7340E+00  0.2188E+02
   3.558  0.7423E+00  0.2188E+02
   3.568  0.7508E+00  0.2189E+02
   3.578  0.7594E+00  0.2190E+02
   3.588  0.7682E+00  0.2191E+02
   3.598  0.7772E+00  0.2191E+02
   3.608  0.7863E+00  0.2192E+02
   3.618  0.7955E+00  0.2193E+02
   3.628  0.8049E+00  0.2194E+02
   3.638  0.8144E+00  0.2195E+02
   3.648  0.8240E+00  0.2195E+02
   3.658  0.8338E+00  0.2196E+02
   3.668  0.8436E+00  0.2197E+02
   3.678  0.8536E+00  0.2198E+02
   3.688  0.8636E+00  0.2199E+02
   3.698  0.8737E+00  0.2200E+02
   3.708  0.8839E+00  0.2201E+02
   3.718  0.8941E+00  0.2202E+02
   3.728  0.9044E+00  0.2202E+02
   3.738  0.9147E+00  0.2203E+02
   3.748  0.9250E+00  0.2204E+02
   3.758  0.9353E+00  0.2205E+02
   3.768  0.9457E+00  0.2206E+02
   3.778  0.9560E+00  0.2207E+02
   3.788  0.9663E+00  0.2208E+02
   3.798  0.9766E+00  0.2209E+02
   3.808  0.9868E+00  0.2210E+02
   3.818  0.9970E+00  0.2211E+02
   3.828  0.1007E+01  0.2212E+02
   3.838  0.1017E+01  0.2213E+02
   3.848  0.1027E+01  0.2214E+02
   3.858  0.1037E+01  0.2215E+02
   3.868  0.1046E+01  0.2216E+02
   3.878  0.1056E+01  0.2217E+02
   3.888  0.1065E+01  0.2218E+02
   3.898  0.1074E+01  0.2219E+02
   3.908  0.1083E+01  0.2220E+02
   3.918  0.1092E+01  0.2222E+02
   3.928  0.1101E+01  0.2223E+02
   3.938  0.1109E+01  0.2224E+02
   3.948  0.1117E+01  0.2225E+02
   3.958  0.1125E+01  0.2226E+02
   3.968  0.1132E+01  0.2227E+02
   3.978  0.1140E+01  0.2228E+02
   3.988  0.1147E+01  0.2229E+02
   3.998  0.1154E+01  0.2231E+02
   4.008  0.1160E+01  0.2232E+02
   4.018  0.1166E+01  0.2233E+02
   4.028  0.1172E+01  0.2234E+02
   4.038  0.1177E+01  0.2235E+02
   4.048  0.1182E+01  0.2236E+02
   4.058  0.1187E+01  0.2238E+02
   4.068  0.1191E+01  0.2239E+02
   4.078  0.1195E+01  0.2240E+02
   4.088  0.1199E+01  0.2241E+02
   4.098  0.1202E+01  0.2242E+02
   4.108  0.1205E+01  0.2244E+02
   4.118  0.1207E+01  0.2245E+02
   4.128  0.1209E+01  0.2246E+02
   4.138  0.1211E+01  0.2247E+02
   4.148  0.1212E+01  0.2248E+02
   4.158  0.1212E+01  0.2250E+02
   4.168  0.1213E+01  0.2251E+02
   4.178  0.1213E+01  0.2252E+02
   4.188  0.1212E+01  0.2253E+02
   4.198  0.1211E+01  0.2255E+02
   4.208  0.1209E+01  0.2256E+02
   4.218  0.1208E+01  0.2257E+02
   4.228  0.1205E+01  0.2258E+02
   4.238  0.1202E+01  0.2259E+02
   4.248  0.1199E+01  0.2261E+02
   4.258  0.1196E+01  0.2262E+02
   4.268  0.1191E+01  0.2263E+02
   4.278  0.1187E+01  0.2264E+02
   4.288  0.1182E+01  0.2265E+02
   4.298  0.1177E+01  0.2266E+02
   4.308  0.1171E+01  0.2268E+02
   4.318  0.1165E+01  0.2269E+02
   4.328  0.1158E+01  0.2270E+02
   4.338  0.1151E+01  0.2271E+02
   4.348  0.1144E+01  0.2272E+02
   4.358  0.1137E+01  0.2273E+02
   4.368  0.1129E+01  0.2275E+02
   4.378  0.1120E+01  0.2276E+02
   4.388  0.1111E+01  0.2277E+02
   4.398  0.1102E+01  0.2278E+02
   4.408  0.1093E+01  0.2279E+02
   4.418  0.1083E+01  0.2280E+02
   4.428  0.1073E+01  0.2281E+02
   4.438  0.1063E+01  0.2282E+02
   4.448  0.1053E+01  0.2283E+02
   4.458  0.1042E+01  0.2284E+02
   4.468  0.1031E+01  0.2285E+02
   4.478  0.1019E+01  0.2286E+02
   4.488  0.1008E+01  0.2287E+02
   4.498  0.9961E+00  0.2288E+02
   4.508  0.9842E+00  0.2289E+02
   4.518  0.9721E+00  0.2290E+02
   4.528  0.9598E+00  0.2291E+02
   4.538  0.9474E+00  0.2292E+02
   4.548  0.9348E+00  0.2293E+02
   4.558  0.9221E+00  0.2294E+02
   4.568  0.9093E+00  0.2295E+02
   4.578  0.8964E+00  0.2296E+02
   4.588  0.8834E+00  0.2297E+02
   4.598  0.8703E+00  0.2298E+02
   4.608  0.8572E+00  0.2298E+02
   4.618  0.8440E+00  0.2299E+02
   4.628  0.8308E+00  0.2300E+02
   4.638  0.8175E+00  0.2301E+02
   4.648  0.8043E+00  0.2302E+02
   4.658  0.7911E+00  0.2303E+02
   4.668  0.7778E+00  0.2303E+02
   4.678  0.7646E+00  0.2304E+02
   4.688  0.7515E+00  0.2305E+02
   4.698  0.7384E+00  0.2306E+02
   4.708  0.7253E+00  0.2306E+02
   4.718  0.7124E+00  0.2307E+02
   4.728  0.6995E+00  0.2308E+02
   4.738  0.6867E+00  0.2308E+02
   4.748  0.6740E+00  0.2309E+02
   4.758  0.6615E+00  0.2310E+02
   4.768  0.6491E+00  0.2310E+02
   4.778  0.6368E+00  0.2311E+02
   4.788  0.6246E+00  0.2312E+02
   4.798  0.6126E+00  0.2312E+02
   4.808  0.6008E+00  0.2313E+02
   4.818  0.5891E+00  0.2313E+02
   4.828  0.5776E+00  0.2314E+02
   4.838  0.5662E+00  0.2315E+02
   4.848  0.5551E+00  0.2315E+02
   4.858  0.5441E+00  0.2316E+02
   4.868  0.5334E+00  0.2316E+02
   4.878  0.5228E+00  0.2317E+02
   4.888  0.5125E+00  0.2317E+02
   4.898  0.5024E+00  0.2318E+02
   4.908  0.4924E+00  0.2318E+02
   4.918  0.4827E+00  0.2319E+02
   4.928  0.4733E+00  0.2319E+02
   4.938  0.4640E+00  0.2320E+02
   4.948  0.4550E+00  0.2320E+02
   4.958  0.4462E+00  0.2321E+02
   4.968  0.4376E+00  0.2321E+02
   4.978  0.4293E+00  0.2321E+02
   4.988  0.4212E+00  0.2322E+02
   4.998  0.4133E+00  0.2322E+02
   5.008  0.4057E+00  0.2323E+02
   5.018  0.3983E+00  0.2323E+02
   5.028  0.3911E+00  0.2323E+02
   5.038  0.3842E+00  0.2324E+02
   5.048  0.3775E+00  0.2324E+02
   5.058  0.3710E+00  0.2325E+02
   5.068  0.3648E+00  0.2325E+02
   5.078  0.3588E+00  0.2325E+02
   5.088  0.3531E+00  0.2326E+02
   5.098  0.3475E+00  0.2326E+02
   5.108  0.3422E+00  0.2326E+02
   5.118  0.3372E+00  0.2327E+02
   5.128  0.3323E+00  0.2327E+02
   5.138  0.3277E+00  0.2327E+02
   5.148  0.3233E+00  0.2328E+02
   5.158  0.3191E+00  0.2328E+02
   5.168  0.3151E+00  0.2328E+02
   5.178  0.3114E+00  0.2329E+02
   5.188  0.3078E+00  0.2329E+02
   5.198  0.3045E+00  0.2329E+02
   5.208  0.3013E+00  0.2330E+02
   5.218  0.2984E+00  0.2330E+02
   5.228  0.2957E+00  0.2330E+02
   5.238  0.2931E+00  0.2330E+02
   5.248  0.2908E+00  0.2331E+02
   5.258  0.2887E+00  0.2331E+02
   5.268  0.2867E+00  0.2331E+02
   5.278  0.2849E+00  0.2332E+02
   5.288  0.2834E+00  0.2332E+02
   5.298  0.2819E+00  0.2332E+02
   5.308  0.2807E+00  0.2332E+02
   5.318  0.2797E+00  0.2333E+02
   5.328  0.2788E+00  0.2333E+02
   5.338  0.2781E+00  0.2333E+02
   5.348  0.2775E+00  0.2334E+02
   5.358  0.2772E+00  0.2334E+02
   5.368  0.2770E+00  0.2334E+02
   5.378  0.2769E+00  0.2334E+02
   5.388  0.2770E+00  0.2335E+02
   5.398  0.2773E+00  0.2335E+02
   5.408  0.2777E+00  0.2335E+02
   5.418  0.2782E+00  0.2335E+02
   5.428  0.2789E+00  0.2336E+02
   5.438  0.2798E+00  0.2336E+02
   5.448  0.2807E+00  0.2336E+02
   5.458  0.2819E+00  0.2337E+02
   5.468  0.2831E+00  0.2337E+02
   5.478  0.2845E+00  0.2337E+02
   5.488  0.2860E+00  0.2337E+02
   5.498  0.2876E+00  0.2338E+02
   5.508  0.2894E+00  0.2338E+02
   5.518  0.2913E+00  0.2338E+02
   5.528  0.2933E+00  0.2339E+02
   5.538  0.2954E+00  0.2339E+02
   5.548  0.2976E+00  0.2339E+02
   5.558  0.3000E+00  0.2340E+02
   5.568  0.3024E+00  0.2340E+02
   5.578  0.3049E+00  0.2340E+02
   5.588  0.3076E+00  0.2340E+02
   5.598  0.3103E+00  0.2341E+02
   5.608  0.3131E+00  0.2341E+02
   5.618  0.3160E+00  0.2341E+02
   5.628  0.3190E+00  0.2342E+02
   5.638  0.3221E+00  0.2342E+02
   5.648  0.3253E+00  0.2342E+02
   5.658  0.3285E+00  0.2343E+02
   5.668  0.3318E+00  0.2343E+02
   5.678  0.3351E+00  0.2343E+02
   5.688  0.3385E+00  0.2344E+02
   5.698  0.3420E+00  0.2344E+02
   5.708  0.3456E+00  0.2344E+02
   5.718  0.3491E+00  0.2345E+02
   5.728  0.3527E+00  0.2345E+02
   5.738  0.3564E+00  0.2345E+02
   5.748  0.3601E+00  0.2346E+02
   5.758  0.3638E+00  0.2346E+02
   5.768  0.3676E+00  0.2347E+02
   5.778  0.3714E+00  0.2347E+02
   5.788  0.3752E+00  0.2347E+02
   5.798  0.3790E+00  0.2348E+02
   5.808  0.3828E+00  0.2348E+02
   5.818  0.3866E+00  0.2348E+02
   5.828  0.3905E+00  0.2349E+02
   5.838  0.3943E+00  0.2349E+02
   5.848  0.3981E+00  0.2350E+02
   5.858  0.4019E+00  0.2350E+02
   5.868  0.4057E+00  0.2350E+02
   5.878  0.4095E+00  0.2351E+02
   5.888  0.4132E+00  0.2351E+02
   5.898  0.4170E+00  0.2352E+02
   5.908  0.4207E+00  0.2352E+02
   5.918  0.4243E+00  0.2352E+02
   5.928  0.4280E+00  0.2353E+02
   5.938  0.4316E+00  0.2353E+02
   5.948  0.4351E+00  0.2354E+02
   5.958  0.4387E+00  0.2354E+02
   5.968  0.4421E+00  0.2355E+02
   5.978  0.4456E+00  0.2355E+02
   5.988  0.4490E+00  0.2356E+02
   5.998  0.4523E+00  0.2356E+02
   6.008  0.4556E+00  0.2356E+02
   6.018  0.4589E+00  0.2357E+02
   6.028  0.4621E+00  0.2357E+02
   6.038  0.4652E+00  0.2358E+02
   6.048  0.4683E+00  0.2358E+02
   6.058  0.4714E+00  0.2359E+02
   6.068  0.4744E+00  0.2359E+02
   6.078  0.4773E+00  0.2360E+02
   6.088  0.4802E+00  0.2360E+02
   6.098  0.4831E+00  0.2361E+02
   6.108  0.4859E+00  0.2361E+02
   6.118  0.4887E+00  0.2362E+02
   6.128  0.4914E+00  0.2362E+02
   6.138  0.4941E+00  0.2363E+02
   6.148  0.4968E+00  0.2363E+02
   6.158  0.4995E+00  0.2364E+02
   6.168  0.5021E+00  0.2364E+02
   6.178  0.5047E+00  0.2365E+02
   6.188  0.5073E+00  0.2365E+02
   6.198  0.5098E+00  0.2366E+02
   6.208  0.5124E+00  0.2366E+02
   6.218  0.5150E+00  0.2367E+02
   6.228  0.5175E+00  0.2367E+02
   6.238  0.5201E+00  0.2368E+02
   6.248  0.5227E+00  0.2368E+02
   6.258  0.5253E+00  0.2369E+02
   6.268  0.5279E+00  0.2369E+02
   6.278  0.5305E+00  0.2370E+02
   6.288  0.5332E+00  0.2370E+02
   6.298  0.5359E+00  0.2371E+02
   6.308  0.5387E+00  0.2371E+02
   6.318  0.5415E+00  0.2372E+02
   6.328  0.5443E+00  0.2373E+02
   6.338  0.5473E+00  0.2373E+02
   6.348  0.5503E+00  0.2374E+02
   6.358  0.5533E+00  0.2374E+02
   6.368  0.5565E+00  0.2375E+02
   6.378  0.5597E+00  0.2375E+02
   6.388  0.5630E+00  0.2376E+02
   6.398  0.5664E+00  0.2376E+02
   6.408  0.5700E+00  0.2377E+02
   6.418  0.5736E+00  0.2378E+02
   6.428  0.5773E+00  0.2378E+02
   6.438  0.5811E+00  0.2379E+02
   6.448  0.5851E+00  0.2379E+02
   6.458  0.5892E+00  0.2380E+02
   6.468  0.5934E+00  0.2381E+02
   6.478  0.5977E+00  0.2381E+02
   6.488  0.6022E+00  0.2382E+02
   6.498  0.6068E+00  0.2382E+02
   6.508  0.6116E+00  0.2383E+02
   6.518  0.6165E+00  0.2384E+02
   6.528  0.6215E+00  0.2384E+02
   6.538  0.6267E+00  0.2385E+02
   6.548  0.6320E+00  0.2385E+02
   6.558  0.6375E+00  0.2386E+02
   6.568  0.6431E+00  0.2387E+02
   6.578  0.6488E+00  0.2387E+02
   6.588  0.6547E+00  0.2388E+02
   6.598  0.6608E+00  0.2389E+02
   6.608  0.6669E+00  0.2389E+02
   6.618  0.6733E+00  0.2390E+02
   6.628  0.6797E+00  0.2391E+02
   6.638  0.6863E+00  0.2391E+02
   6.648  0.6930E+00  0.2392E+02
   6.658  0.6998E+00  0.2393E+02
   6.668  0.7068E+00  0.2393E+02
   6.678  0.7138E+00  0.2394E+02
   6.688  0.7210E+00  0.2395E+02
   6.698  0.7282E+00  0.2396E+02
   6.708  0.7356E+00  0.2396E+02
   6.718  0.7430E+00  0.2397E+02
   6.728  0.7505E+00  0.2398E+02
   6.738  0.7581E+00  0.2399E+02
   6.748  0.7657E+00  0.2399E+02
   6.758  0.7734E+00  0.2400E+02
   6.768  0.7811E+00  0.2401E+02
   6.778  0.7888E+00  0.2402E+02
   6.788  0.7965E+00  0.2403E+02
   6.798  0.8043E+00  0.2403E+02
   6.808  0.8120E+00  0.2404E+02
   6.818  0.8197E+00  0.2405E+02
   6.828  0.8274E+00  0.2406E+02
   6.838  0.8350E+00  0.2407E+02
   6.848  0.8426E+00  0.2407E+02
   6.858  0.8500E+00  0.2408E+02
   6.868  0.8574E+00  0.2409E+02
   6.878  0.8647E+00  0.2410E+02
   6.888  0.8719E+00  0.2411E+02
   6.898  0.8790E+00  0.2412E+02
   6.908  0.8859E+00  0.2413E+02
   6.918  0.8926E+00  0.2414E+02
   6.928  0.8992E+00  0.2414E+02
   6.938  0.9056E+00  0.2415E+02
   6.948  0.9118E+00  0.2416E+02
   6.958  0.9178E+00  0.2417E+02
   6.968  0.9236E+00  0.2418E+02
   6.978  0.9291E+00  0.2419E+02
   6.988  0.9344E+00  0.2420E+02
   6.998  0.9394E+00  0.2421E+02
   7.008  0.9441E+00  0.2422E+02
   7.018  0.9486E+00  0.2423E+02
   7.028  0.9528E+00  0.2424E+02
   7.038  0.9566E+00  0.2425E+02
   7.048  0.9602E+00  0.2426E+02
   7.058  0.9634E+00  0.2427E+02
   7.068  0.9663E+00  0.2428E+02
   7.078  0.9689E+00  0.2429E+02
   7.088  0.9711E+00  0.2430E+02
   7.098  0.9730E+00  0.2431E+02
   7.108  0.9745E+00  0.2432E+02
   7.118  0.9756E+00  0.2432E+02
   7.128  0.9764E+00  0.2433E+02
   7.138  0.9769E+00  0.2434E+02
   7.148  0.9769E+00  0.2435E+02
   7.158  0.9766E+00  0.2436E+02
   7.168  0.9759E+00  0.2437E+02
   7.178  0.9749E+00  0.2438E+02
   7.188  0.9735E+00  0.2439E+02
   7.198  0.9717E+00  0.2440E+02
   7.208  0.9696E+00  0.2441E+02
   7.218  0.9671E+00  0.2442E+02
   7.228  0.9642E+00  0.2443E+02
   7.238  0.9611E+00  0.2444E+02
   7.248  0.9575E+00  0.2445E+02
   7.258  0.9537E+00  0.2446E+02
   7.268  0.9495E+00  0.2447E+02
   7.278  0.9451E+00  0.2448E+02
   7.288  0.9403E+00  0.2449E+02
   7.298  0.9352E+00  0.2450E+02
   7.308  0.9299E+00  0.2451E+02
   7.318  0.9243E+00  0.2452E+02
   7.328  0.9184E+00  0.2453E+02
   7.338  0.9123E+00  0.2454E+02
   7.348  0.9060E+00  0.2454E+02
   7.358  0.8995E+00  0.2455E+02
   7.368  0.8928E+00  0.2456E+02
   7.378  0.8859E+00  0.2457E+02
   7.388  0.8788E+00  0.2458E+02
   7.398  0.8716E+00  0.2459E+02
   7.408  0.8643E+00  0.2460E+02
   7.418  0.8568E+00  0.2461E+02
   7.428  0.8493E+00  0.2461E+02
   7.438  0.8416E+00  0.2462E+02
   7.448  0.8339E+00  0.2463E+02
   7.458  0.8262E+00  0.2464E+02
   7.468  0.8184E+00  0.2465E+02
   7.478  0.8106E+00  0.2466E+02
   7.488  0.8028E+00  0.2466E+02
   7.498  0.7950E+00  0.2467E+02
   7.508  0.7872E+00  0.2468E+02
   7.518  0.7795E+00  0.2469E+02
   7.528  0.7719E+00  0.2469E+02
   7.538  0.7643E+00  0.2470E+02
   7.548  0.7568E+00  0.2471E+02
   7.558  0.7495E+00  0.2472E+02
   7.568  0.7422E+00  0.2472E+02
   7.578  0.7351E+00  0.2473E+02
   7.588  0.7281E+00  0.2474E+02
   7.598  0.7213E+00  0.2475E+02
   7.608  0.7146E+00  0.2475E+02
   7.618  0.7081E+00  0.2476E+02
   7.628  0.7018E+00  0.2477E+02
   7.638  0.6957E+00  0.2478E+02
   7.648  0.6898E+00  0.2478E+02
   7.658  0.6841E+00  0.2479E+02
   7.668  0.6786E+00  0.2480E+02
   7.678  0.6734E+00  0.2480E+02
   7.688  0.6684E+00  0.2481E+02
   7.698  0.6636E+00  0.2482E+02
   7.708  0.6590E+00  0.2482E+02
   7.718  0.6547E+00  0.2483E+02
   7.728  0.6506E+00  0.2484E+02
   7.738  0.6468E+00  0.2484E+02
   7.748  0.6432E+00  0.2485E+02
   7.758  0.6399E+00  0.2485E+02
   7.768  0.6368E+00  0.2486E+02
   7.778  0.6340E+00  0.2487E+02
   7.788  0.6314E+00  0.2487E+02
   7.798  0.6291E+00  0.2488E+02
   7.808  0.6270E+00  0.2489E+02
   7.818  0.6251E+00  0.2489E+02
   7.828  0.6235E+00  0.2490E+02
   7.838  0.6221E+00  0.2490E+02
   7.848  0.6209E+00  0.2491E+02
   7.858  0.6200E+00  0.2492E+02
   7.868  0.6193E+00  0.2492E+02
   7.878  0.6188E+00  0.2493E+02
   7.888  0.6185E+00  0.2494E+02
   7.898  0.6184E+00  0.2494E+02
   7.908  0.6185E+00  0.2495E+02
   7.918  0.6189E+00  0.2495E+02
   7.928  0.6194E+00  0.2496E+02
   7.938  0.6200E+00  0.2497E+02
   7.948  0.6209E+00  0.2497E+02
   7.958  0.6219E+00  0.2498E+02
   7.968  0.6231E+00  0.2499E+02
   7.978  0.6245E+00  0.2499E+02
   7.988  0.6260E+00  0.2500E+02
   7.998  0.6276E+00  0.2500E+02
   8.008  0.6294E+00  0.2501E+02
   8.018  0.6313E+00  0.2502E+02
   8.028  0.6333E+00  0.2502E+02
   8.038  0.6355E+00  0.2503E+02
   8.048  0.6378E+00  0.2504E+02
   8.058  0.6402E+00  0.2504E+02
   8.068  0.6426E+00  0.2505E+02
   8.078  0.6452E+00  0.2506E+02
   8.088  0.6479E+00  0.2506E+02
   8.098  0.6507E+00  0.2507E+02
   8.108  0.6535E+00  0.2507E+02
   8.118  0.6564E+00  0.2508E+02
   8.128  0.6595E+00  0.2509E+02
   8.138  0.6625E+00  0.2509E+02
   8.148  0.6657E+00  0.2510E+02
   8.158  0.6689E+00  0.2511E+02
   8.168  0.6722E+00  0.2511E+02
   8.178  0.6755E+00  0.2512E+02
   8.188  0.6790E+00  0.2513E+02
   8.198  0.6824E+00  0.2513E+02
   8.208  0.6860E+00  0.2514E+02
   8.218  0.6895E+00  0.2515E+02
   8.228  0.6932E+00  0.2516E+02
   8.238  0.6969E+00  0.2516E+02
   8.248  0.7007E+00  0.2517E+02
   8.258  0.7045E+00  0.2518E+02
   8.268  0.7084E+00  0.2518E+02
   8.278  0.7123E+00  0.2519E+02
   8.288  0.7164E+00  0.2520E+02
   8.298  0.7204E+00  0.2521E+02
   8.308  0.7246E+00  0.2521E+02
   8.318  0.7288E+00  0.2522E+02
   8.328  0.7331E+00  0.2523E+02
   8.338  0.7375E+00  0.2523E+02
   8.348  0.7419E+00  0.2524E+02
   8.358  0.7465E+00  0.2525E+02
   8.368  0.7511E+00  0.2526E+02
   8.378  0.7558E+00  0.2526E+02
   8.388  0.7606E+00  0.2527E+02
   8.398  0.7655E+00  0.2528E+02
   8.408  0.7705E+00  0.2529E+02
   8.418  0.7756E+00  0.2530E+02
   8.428  0.7808E+00  0.2530E+02
   8.438  0.7862E+00  0.2531E+02
   8.448  0.7916E+00  0.2532E+02
   8.458  0.7972E+00  0.2533E+02
   8.468  0.8029E+00  0.2533E+02
   8.478  0.8088E+00  0.2534E+02
   8.488  0.8148E+00  0.2535E+02
   8.498  0.8209E+00  0.2536E+02
   8.508  0.8272E+00  0.2537E+02
   8.518  0.8336E+00  0.2538E+02
   8.528  0.8402E+00  0.2538E+02
   8.538  0.8470E+00  0.2539E+02
   8.548  0.8539E+00  0.2540E+02
   8.558  0.8609E+00  0.2541E+02
   8.568  0.8682E+00  0.2542E+02
   8.578  0.8756E+00  0.2543E+02
   8.588  0.8832E+00  0.2544E+02
   8.598  0.8909E+00  0.2544E+02
   8.608  0.8989E+00  0.2545E+02
   8.618  0.9070E+00  0.2546E+02
   8.628  0.9153E+00  0.2547E+02
   8.638  0.9237E+00  0.2548E+02
   8.648  0.9324E+00  0.2549E+02
   8.658  0.9412E+00  0.2550E+02
   8.668  0.9502E+00  0.2551E+02
   8.678  0.9594E+00  0.2552E+02
   8.688  0.9688E+00  0.2553E+02
   8.698  0.9783E+00  0.2554E+02
   8.708  0.9880E+00  0.2555E+02
   8.718  0.9979E+00  0.2556E+02
   8.728  0.1008E+01  0.2557E+02
   8.738  0.1018E+01  0.2558E+02
   8.748  0.1028E+01  0.2559E+02
   8.758  0.1039E+01  0.2560E+02
   8.768  0.1049E+01  0.2561E+02
   8.778  0.1060E+01  0.2562E+02
   8.788  0.1071E+01  0.2563E+02
   8.798  0.1082E+01  0.2564E+02
   8.808  0.1093E+01  0.2565E+02
   8.818  0.1104E+01  0.2566E+02
   8.828  0.1116E+01  0.2568E+02
   8.838  0.1127E+01  0.2569E+02
   8.848  0.1138E+01  0.2570E+02
   8.858  0.1150E+01  0.2571E+02
   8.868  0.1161E+01  0.2572E+02
   8.878  0.1173E+01  0.2573E+02
   8.888  0.1184E+01  0.2574E+02
   8.898  0.1196E+01  0.2576E+02
   8.908  0.1207E+01  0.2577E+02
   8.918  0.1219E+01  0.2578E+02
   8.928  0.1230E+01  0.2579E+02
   8.938  0.1242E+01  0.2581E+02
   8.948  0.1253E+01  0.2582E+02
   8.958  0.1264E+01  0.2583E+02
   8.968  0.1276E+01  0.2584E+02
   8.978  0.1287E+01  0.2586E+02
   8.988  0.1298E+01  0.2587E+02
   8.998  0.1308E+01  0.2588E+02
   9.008  0.1319E+01  0.2590E+02
   9.018  0.1330E+01  0.2591E+02
   9.028  0.1340E+01  0.2592E+02
   9.038  0.1350E+01  0.2594E+02
   9.048  0.1360E+01  0.2595E+02
   9.058  0.1369E+01  0.2596E+02
   9.068  0.1379E+01  0.2598E+02
   9.078  0.1388E+01  0.2599E+02
   9.088  0.1396E+01  0.2600E+02
   9.098  0.1405E+01  0.2602E+02
   9.108  0.1413E+01  0.2603E+02
   9.118  0.1421E+01  0.2605E+02
   9.128  0.1429E+01  0.2606E+02
   9.138  0.1436E+01  0.2608E+02
   9.148  0.1443E+01  0.2609E+02
   9.158  0.1449E+01  0.2610E+02
   9.168  0.1455E+01  0.2612E+02
   9.178  0.1461E+01  0.2613E+02
   9.188  0.1466E+01  0.2615E+02
   9.198  0.1471E+01  0.2616E+02
   9.208  0.1475E+01  0.2618E+02
   9.218  0.1479E+01  0.2619E+02
   9.228  0.1483E+01  0.2621E+02
   9.238  0.1486E+01  0.2622E+02
   9.248  0.1488E+01  0.2624E+02
   9.258  0.1490E+01  0.2625E+02
   9.268  0.1492E+01  0.2627E+02
   9.278  0.1493E+01  0.2628E+02
   9.288  0.1494E+01  0.2630E+02
   9.298  0.1494E+01  0.2631E+02
   9.308  0.1494E+01  0.2633E+02
   9.318  0.1493E+01  0.2634E+02
   9.328  0.1492E+01  0.2636E+02
   9.338  0.1490E+01  0.2637E+02
   9.348  0.1488E+01  0.2639E+02
   9.358  0.1485E+01  0.2640E+02
   9.368  0.1482E+01  0.2642E+02
   9.378  0.1479E+01  0.2643E+02
   9.388  0.1475E+01  0.2645E+02
   9.398  0.1470E+01  0.2646E+02
   9.408  0.1465E+01  0.2648E+02
   9.418  0.1460E+01  0.2649E+02
   9.428  0.1454E+01  0.2650E+02
   9.438  0.1448E+01  0.2652E+02
   9.448  0.1441E+01  0.2653E+02
   9.458  0.1434E+01  0.2655E+02
   9.468  0.1426E+01  0.2656E+02
   9.478  0.1419E+01  0.2658E+02
   9.488  0.1410E+01  0.2659E+02
   9.498  0.1402E+01  0.2660E+02
   9.508  0.1393E+01  0.2662E+02
   9.518  0.1383E+01  0.2663E+02
   9.528  0.1374E+01  0.2665E+02
   9.538  0.1364E+01  0.2666E+02
   9.548  0.1353E+01  0.2667E+02
   9.558  0.1343E+01  0.2669E+02
   9.568  0.1332E+01  0.2670E+02
   9.578  0.1321E+01  0.2671E+02
   9.588  0.1309E+01  0.2673E+02
   9.598  0.1298E+01  0.2674E+02
   9.608  0.1286E+01  0.2675E+02
   9.618  0.1274E+01  0.2676E+02
   9.628  0.1262E+01  0.2678E+02
   9.638  0.1250E+01  0.2679E+02
   9.648  0.1238E+01  0.2680E+02
   9.658  0.1225E+01  0.2681E+02
   9.668  0.1212E+01  0.2683E+02
   9.678  0.1200E+01  0.2684E+02
   9.688  0.1187E+01  0.2685E+02
   9.698  0.1174E+01  0.2686E+02
   9.708  0.1161E+01  0.2687E+02
   9.718  0.1149E+01  0.2688E+02
   9.728  0.1136E+01  0.2690E+02
   9.738  0.1123E+01  0.2691E+02
   9.748  0.1110E+01  0.2692E+02
   9.758  0.1098E+01  0.2693E+02
   9.768  0.1085E+01  0.2694E+02
   9.778  0.1073E+01  0.2695E+02
   9.788  0.1060E+01  0.2696E+02
   9.798  0.1048E+01  0.2697E+02
   9.808  0.1036E+01  0.2698E+02
   9.818  0.1024E+01  0.2699E+02
   9.828  0.1013E+01  0.2700E+02
   9.838  0.1001E+01  0.2701E+02
   9.848  0.9898E+00  0.2702E+02
   9.858  0.9787E+00  0.2703E+02
   9.868  0.9678E+00  0.2704E+02
   9.878  0.9572E+00  0.2705E+02
   9.888  0.9469E+00  0.2706E+02
   9.898  0.9368E+00  0.2707E+02
   9.908  0.9271E+00  0.2708E+02
   9.918  0.9176E+00  0.2709E+02
   9.928  0.9084E+00  0.2710E+02
   9.938  0.8996E+00  0.2711E+02
   9.948  0.8911E+00  0.2712E+02
   9.958  0.8829E+00  0.2712E+02
   9.968  0.8750E+00  0.2713E+02
   9.978  0.8675E+00  0.2714E+02
   9.988  0.8604E+00  0.2715E+02
   9.998  0.8536E+00  0.2716E+02
  10.008  0.8472E+00  0.2717E+02
  10.018  0.8412E+00  0.2718E+02
  10.028  0.8355E+00  0.2718E+02
  10.038  0.8302E+00  0.2719E+02
  10.048  0.8253E+00  0.2720E+02
  10.058  0.8208E+00  0.2721E+02
  10.068  0.8167E+00  0.2722E+02
  10.078  0.8129E+00  0.2723E+02
  10.088  0.8096E+00  0.2723E+02
  10.098  0.8066E+00  0.2724E+02
  10.108  0.8040E+00  0.2725E+02
  10.118  0.8017E+00  0.2726E+02
  10.128  0.7999E+00  0.2727E+02
  10.138  0.7984E+00  0.2727E+02
  10.148  0.7973E+00  0.2728E+02
  10.158  0.7965E+00  0.2729E+02
  10.168  0.7961E+00  0.2730E+02
  10.178  0.7960E+00  0.2731E+02
  10.188  0.7962E+00  0.2731E+02
  10.198  0.7968E+00  0.2732E+02
  10.208  0.7977E+00  0.2733E+02
  10.218  0.7989E+00  0.2734E+02
  10.228  0.8004E+00  0.2735E+02
  10.238  0.8022E+00  0.2735E+02
  10.248  0.8042E+00  0.2736E+02
  10.258  0.8065E+00  0.2737E+02
  10.268  0.8091E+00  0.2738E+02
  10.278  0.8119E+00  0.2739E+02
  10.288  0.8150E+00  0.2739E+02
  10.298  0.8182E+00  0.2740E+02
  10.308  0.8217E+00  0.2741E+02
  10.318  0.8253E+00  0.2742E+02
  10.328  0.8291E+00  0.2743E+02
  10.338  0.8330E+00  0.2744E+02
  10.348  0.8372E+00  0.2744E+02
  10.358  0.8414E+00  0.2745E+02
  10.368  0.8457E+00  0.2746E+02
  10.378  0.8502E+00  0.2747E+02
  10.388  0.8547E+00  0.2748E+02
  10.398  0.8593E+00  0.2749E+02
  10.408  0.8640E+00  0.2750E+02
  10.418  0.8687E+00  0.2750E+02
  10.428  0.8734E+00  0.2751E+02
  10.438  0.8782E+00  0.2752E+02
  10.448  0.8829E+00  0.2753E+02
  10.458  0.8877E+00  0.2754E+02
  10.468  0.8924E+00  0.2755E+02
  10.478  0.8971E+00  0.2756E+02
  10.488  0.9017E+00  0.2757E+02
  10.498  0.9063E+00  0.2757E+02
  10.508  0.9109E+00  0.2758E+02
  10.518  0.9153E+00  0.2759E+02
  10.528  0.9197E+00  0.2760E+02
  10.538  0.9240E+00  0.2761E+02
  10.548  0.9282E+00  0.2762E+02
  10.558  0.9323E+00  0.2763E+02
  10.568  0.9363E+00  0.2764E+02
  10.578  0.9402E+00  0.2765E+02
  10.588  0.9439E+00  0.2766E+02
  10.598  0.9475E+00  0.2767E+02
  10.608  0.9510E+00  0.2768E+02
  10.618  0.9544E+00  0.2769E+02
  10.628  0.9576E+00  0.2770E+02
  10.638  0.9608E+00  0.2771E+02
  10.648  0.9637E+00  0.2772E+02
  10.658  0.9666E+00  0.2773E+02
  10.668  0.9693E+00  0.2774E+02
  10.678  0.9719E+00  0.2774E+02
  10.688  0.9743E+00  0.2775E+02
  10.698  0.9767E+00  0.2776E+02
  10.708  0.9789E+00  0.2777E+02
  10.718  0.9810E+00  0.2778E+02
  10.728  0.9830E+00  0.2779E+02
  10.738  0.9849E+00  0.2780E+02
  10.748  0.9867E+00  0.2781E+02
  10.758  0.9884E+00  0.2782E+02
  10.768  0.9900E+00  0.2783E+02
  10.778  0.9916E+00  0.2784E+02
  10.788  0.9931E+00  0.2785E+02
  10.798  0.9945E+00  0.2786E+02
  10.808  0.9959E+00  0.2787E+02
  10.818  0.9972E+00  0.2788E+02
  10.828  0.9985E+00  0.2789E+02
  10.838  0.9998E+00  0.2790E+02
  10.848  0.1001E+01  0.2791E+02
  10.858  0.1002E+01  0.2792E+02
  10.868  0.1004E+01  0.2793E+02
  10.878  0.1005E+01  0.2794E+02
  10.888  0.1006E+01  0.2795E+02
  10.898  0.1007E+01  0.2796E+02
  10.908  0.1009E+01  0.2797E+02
  10.918  0.1010E+01  0.2798E+02
  10.928  0.1012E+01  0.2799E+02
  10.938  0.1013E+01  0.2800E+02
  10.948  0.1015E+01  0.2801E+02
  10.958  0.1016E+01  0.2802E+02
  10.968  0.1018E+01  0.2803E+02
  10.978  0.1020E+01  0.2804E+02
  10.988  0.1022E+01  0.2805E+02
  10.998  0.1024E+01  0.2806E+02
  11.008  0.1026E+01  0.2808E+02
  11.018  0.1028E+01  0.2809E+02
  11.028  0.1031E+01  0.2810E+02
  11.038  0.1033E+01  0.2811E+02
  11.048  0.1036E+01  0.2812E+02
  11.058  0.1039E+01  0.2813E+02
  11.068  0.1042E+01  0.2814E+02
  11.078  0.1045E+01  0.2815E+02
  11.088  0.1048E+01  0.2816E+02
  11.098  0.1051E+01  0.2817E+02
  11.108  0.1055E+01  0.2818E+02
  11.118  0.1058E+01  0.2819E+02
  11.128  0.1062E+01  0.2820E+02
  11.138  0.1066E+01  0.2821E+02
  11.148  0.1070E+01  0.2822E+02
  11.158  0.1074E+01  0.2823E+02
  11.168  0.1078E+01  0.2824E+02
  11.178  0.1082E+01  0.2825E+02
  11.188  0.1087E+01  0.2826E+02
  11.198  0.1091E+01  0.2828E+02
  11.208  0.1096E+01  0.2829E+02
  11.218  0.1101E+01  0.2830E+02
  11.228  0.1106E+01  0.2831E+02
  11.238  0.1111E+01  0.2832E+02
  11.248  0.1116E+01  0.2833E+02
  11.258  0.1121E+01  0.2834E+02
  11.268  0.1126E+01  0.2835E+02
  11.278  0.1132E+01  0.2836E+02
  11.288  0.1137E+01  0.2838E+02
  11.298  0.1143E+01  0.2839E+02
  11.308  0.1148E+01  0.2840E+02
  11.318  0.1154E+01  0.2841E+02
  11.328  0.1159E+01  0.2842E+02
  11.338  0.1165E+01  0.2843E+02
  11.348  0.1171E+01  0.2845E+02
  11.358  0.1176E+01  0.2846E+02
  11.368  0.1182E+01  0.2847E+02
  11.378  0.1188E+01  0.2848E+02
  11.388  0.1194E+01  0.2849E+02
  11.398  0.1199E+01  0.2851E+02
  11.408  0.1205E+01  0.2852E+02
  11.418  0.1211E+01  0.2853E+02
  11.428  0.1216E+01  0.2854E+02
  11.438  0.1222E+01  0.2855E+02
  11.448  0.1228E+01  0.2857E+02
  11.458  0.1233E+01  0.2858E+02
  11.468  0.1239E+01  0.2859E+02
  11.478  0.1244E+01  0.2860E+02
  11.488  0.1249E+01  0.2862E+02
  11.498  0.1255E+01  0.2863E+02
  11.508  0.1260E+01  0.2864E+02
  11.518  0.1265E+01  0.2865E+02
  11.528  0.1270E+01  0.2867E+02
  11.538  0.1275E+01  0.2868E+02
  11.548  0.1280E+01  0.2869E+02
  11.558  0.1284E+01  0.2870E+02
  11.568  0.1289E+01  0.2872E+02
  11.578  0.1293E+01  0.2873E+02
  11.588  0.1298E+01  0.2874E+02
  11.598  0.1302E+01  0.2876E+02
  11.608  0.1306E+01  0.2877E+02
  11.618  0.1310E+01  0.2878E+02
  11.628  0.1314E+01  0.2880E+02
  11.638  0.1317E+01  0.2881E+02
  11.648  0.1320E+01  0.2882E+02
  11.658  0.1324E+01  0.2884E+02
  11.668  0.1327E+01  0.2885E+02
  11.678  0.1330E+01  0.2886E+02
  11.688  0.1332E+01  0.2888E+02
  11.698  0.1335E+01  0.2889E+02
  11.708  0.1337E+01  0.2890E+02
  11.718  0.1339E+01  0.2892E+02
  11.728  0.1341E+01  0.2893E+02
  11.738  0.1342E+01  0.2894E+02
  11.748  0.1344E+01  0.2896E+02
  11.758  0.1345E+01  0.2897E+02
  11.768  0.1346E+01  0.2898E+02
  11.778  0.1347E+01  0.2900E+02
  11.788  0.1347E+01  0.2901E+02
  11.798  0.1348E+01  0.2902E+02
  11.808  0.1348E+01  0.2904E+02
  11.818  0.1347E+01  0.2905E+02
  11.828  0.1347E+01  0.2906E+02
  11.838  0.1346E+01  0.2908E+02
  11.848  0.1345E+01  0.2909E+02
  11.858  0.1344E+01  0.2910E+02
  11.868  0.1343E+01  0.2912E+02
  11.878  0.1341E+01  0.2913E+02
  11.888  0.1339E+01  0.2914E+02
  11.898  0.1337E+01  0.2916E+02
  11.908  0.1335E+01  0.2917E+02
  11.918  0.1332E+01  0.2918E+02
  11.928  0.1329E+01  0.2920E+02
  11.938  0.1326E+01  0.2921E+02
  11.948  0.1323E+01  0.2922E+02
  11.958  0.1320E+01  0.2924E+02
  11.968  0.1316E+01  0.2925E+02
  11.978  0.1312E+01  0.2926E+02
  11.988  0.1308E+01  0.2928E+02
  11.998  0.1304E+01  0.2929E+02
  12.008  0.1299E+01  0.2930E+02
  12.018  0.1295E+01  0.2932E+02
  12.028  0.1290E+01  0.2933E+02
  12.038  0.1285E+01  0.2934E+02
  12.048  0.1280E+01  0.2935E+02
  12.058  0.1274E+01  0.2937E+02
  12.068  0.1269E+01  0.2938E+02
  12.078  0.1264E+01  0.2939E+02
  12.088  0.1258E+01  0.2940E+02
  12.098  0.1252E+01  0.2942E+02
  12.108  0.1246E+01  0.2943E+02
  12.118  0.1240E+01  0.2944E+02
  12.128  0.1235E+01  0.2945E+02
  12.138  0.1229E+01  0.2947E+02
  12.148  0.1223E+01  0.2948E+02
  12.158  0.1216E+01  0.2949E+02
  12.168  0.1210E+01  0.2950E+02
  12.178  0.1204E+01  0.2951E+02
  12.188  0.1198E+01  0.2953E+02
  12.198  0.1192E+01  0.2954E+02
  12.208  0.1186E+01  0.2955E+02
  12.218  0.1180E+01  0.2956E+02
  12.228  0.1174E+01  0.2957E+02
  12.238  0.1169E+01  0.2959E+02
  12.248  0.1163E+01  0.2960E+02
  12.258  0.1157E+01  0.2961E+02
  12.268  0.1152E+01  0.2962E+02
  12.278  0.1147E+01  0.2963E+02
  12.288  0.1141E+01  0.2964E+02
  12.298  0.1136E+01  0.2965E+02
  12.308  0.1131E+01  0.2967E+02
  12.318  0.1127E+01  0.2968E+02
  12.328  0.1122E+01  0.2969E+02
  12.338  0.1117E+01  0.2970E+02
  12.348  0.1113E+01  0.2971E+02
  12.358  0.1109E+01  0.2972E+02
  12.368  0.1105E+01  0.2973E+02
  12.378  0.1102E+01  0.2974E+02
  12.388  0.1098E+01  0.2976E+02
  12.398  0.1095E+01  0.2977E+02
  12.408  0.1092E+01  0.2978E+02
  12.418  0.1089E+01  0.2979E+02
  12.428  0.1086E+01  0.2980E+02
  12.438  0.1084E+01  0.2981E+02
  12.448  0.1081E+01  0.2982E+02
  12.458  0.1079E+01  0.2983E+02
  12.468  0.1077E+01  0.2984E+02
  12.478  0.1076E+01  0.2985E+02
  12.488  0.1074E+01  0.2986E+02
  12.498  0.1073E+01  0.2987E+02
  12.508  0.1071E+01  0.2988E+02
  12.518  0.1070E+01  0.2990E+02
  12.528  0.1070E+01  0.2991E+02
  12.538  0.1069E+01  0.2992E+02
  12.548  0.1068E+01  0.2993E+02
  12.558  0.1068E+01  0.2994E+02
  12.568  0.1067E+01  0.2995E+02
  12.578  0.1067E+01  0.2996E+02
  12.588  0.1067E+01  0.2997E+02
  12.598  0.1067E+01  0.2998E+02
  12.608  0.1066E+01  0.2999E+02
  12.618  0.1066E+01  0.3000E+02
  12.628  0.1066E+01  0.3001E+02
  12.638  0.1066E+01  0.3002E+02
  12.648  0.1066E+01  0.3003E+02
  12.658  0.1066E+01  0.3005E+02
  12.668  0.1066E+01  0.3006E+02
  12.678  0.1066E+01  0.3007E+02
  12.688  0.1066E+01  0.3008E+02
  12.698  0.1065E+01  0.3009E+02
  12.708  0.1065E+01  0.3010E+02
  12.718  0.1065E+01  0.3011E+02
  12.728  0.1064E+01  0.3012E+02
  12.738  0.1063E+01  0.3013E+02
  12.748  0.1062E+01  0.3014E+02
  12.758  0.1061E+01  0.3015E+02
  12.768  0.1060E+01  0.3016E+02
  12.778  0.1058E+01  0.3017E+02
  12.788  0.1057E+01  0.3018E+02
  12.798  0.1055E+01  0.3019E+02
  12.808  0.1053E+01  0.3020E+02
  12.818  0.1050E+01  0.3021E+02
  12.828  0.1048E+01  0.3023E+02
  12.838  0.1045E+01  0.3024E+02
  12.848  0.1042E+01  0.3025E+02
  12.858  0.1038E+01  0.3026E+02
  12.868  0.1035E+01  0.3027E+02
  12.878  0.1031E+01  0.3028E+02
  12.888  0.1026E+01  0.3029E+02
  12.898  0.1022E+01  0.3030E+02
  12.908  0.1017E+01  0.3031E+02
  12.918  0.1012E+01  0.3032E+02
  12.928  0.1006E+01  0.3033E+02
  12.938  0.1001E+01  0.3034E+02
  12.948  0.9948E+00  0.3035E+02
  12.958  0.9885E+00  0.3036E+02
  12.968  0.9819E+00  0.3037E+02
  12.978  0.9750E+00  0.3038E+02
  12.988  0.9679E+00  0.3039E+02
  12.998  0.9605E+00  0.3040E+02
  13.008  0.9528E+00  0.3041E+02
  13.018  0.9449E+00  0.3042E+02
  13.028  0.9368E+00  0.3043E+02
  13.038  0.9284E+00  0.3043E+02
  13.048  0.9198E+00  0.3044E+02
  13.058  0.9110E+00  0.3045E+02
  13.068  0.9020E+00  0.3046E+02
  13.078  0.8928E+00  0.3047E+02
  13.088  0.8834E+00  0.3048E+02
  13.098  0.8739E+00  0.3049E+02
  13.108  0.8642E+00  0.3050E+02
  13.118  0.8544E+00  0.3051E+02
  13.128  0.8445E+00  0.3051E+02
  13.138  0.8345E+00  0.3052E+02
  13.148  0.8244E+00  0.3053E+02
  13.158  0.8143E+00  0.3054E+02
  13.168  0.8041E+00  0.3055E+02
  13.178  0.7939E+00  0.3055E+02
  13.188  0.7837E+00  0.3056E+02
  13.198  0.7735E+00  0.3057E+02
  13.208  0.7633E+00  0.3058E+02
  13.218  0.7531E+00  0.3059E+02
  13.228  0.7431E+00  0.3059E+02
  13.238  0.7331E+00  0.3060E+02
  13.248  0.7232E+00  0.3061E+02
  13.258  0.7134E+00  0.3061E+02
  13.268  0.7038E+00  0.3062E+02
  13.278  0.6943E+00  0.3063E+02
  13.288  0.6850E+00  0.3064E+02
  13.298  0.6759E+00  0.3064E+02
  13.308  0.6669E+00  0.3065E+02
  13.318  0.6582E+00  0.3066E+02
  13.328  0.6498E+00  0.3066E+02
  13.338  0.6416E+00  0.3067E+02
  13.348  0.6336E+00  0.3067E+02
  13.358  0.6259E+00  0.3068E+02
  13.368  0.6186E+00  0.3069E+02
  13.378  0.6115E+00  0.3069E+02
  13.388  0.6047E+00  0.3070E+02
  13.398  0.5983E+00  0.3071E+02
  13.408  0.5923E+00  0.3071E+02
  13.418  0.5866E+00  0.3072E+02
  13.428  0.5812E+00  0.3072E+02
  13.438  0.5763E+00  0.3073E+02
  13.448  0.5717E+00  0.3073E+02
  13.458  0.5675E+00  0.3074E+02
  13.468  0.5638E+00  0.3075E+02
  13.478  0.5604E+00  0.3075E+02
  13.488  0.5575E+00  0.3076E+02
  13.498  0.5550E+00  0.3076E+02
  13.508  0.5529E+00  0.3077E+02
  13.518  0.5513E+00  0.3077E+02
  13.528  0.5502E+00  0.3078E+02
  13.538  0.5494E+00  0.3078E+02
  13.548  0.5492E+00  0.3079E+02
  13.558  0.5494E+00  0.3080E+02
  13.568  0.5500E+00  0.3080E+02
  13.578  0.5512E+00  0.3081E+02
  13.588  0.5527E+00  0.3081E+02
  13.598  0.5548E+00  0.3082E+02
  13.608  0.5573E+00  0.3082E+02
  13.618  0.5603E+00  0.3083E+02
  13.628  0.5638E+00  0.3083E+02
  13.638  0.5677E+00  0.3084E+02
  13.648  0.5720E+00  0.3085E+02
  13.658  0.5769E+00  0.3085E+02
  13.668  0.5822E+00  0.3086E+02
  13.678  0.5879E+00  0.3086E+02
  13.688  0.5941E+00  0.3087E+02
  13.698  0.6007E+00  0.3087E+02
  13.708  0.6078E+00  0.3088E+02
  13.718  0.6153E+00  0.3089E+02
  13.728  0.6233E+00  0.3089E+02
  13.738  0.6316E+00  0.3090E+02
  13.748  0.6404E+00  0.3091E+02
  13.758  0.6496E+00  0.3091E+02
  13.768  0.6592E+00  0.3092E+02
  13.778  0.6691E+00  0.3093E+02
  13.788  0.6795E+00  0.3093E+02
  13.798  0.6902E+00  0.3094E+02
  13.808  0.7013E+00  0.3095E+02
  13.818  0.7128E+00  0.3095E+02
  13.828  0.7245E+00  0.3096E+02
  13.838  0.7367E+00  0.3097E+02
  13.848  0.7491E+00  0.3098E+02
  13.858  0.7619E+00  0.3098E+02
  13.868  0.7749E+00  0.3099E+02
  13.878  0.7883E+00  0.3100E+02
  13.888  0.8019E+00  0.3101E+02
  13.898  0.8157E+00  0.3102E+02
  13.908  0.8299E+00  0.3102E+02
  13.918  0.8442E+00  0.3103E+02
  13.928  0.8588E+00  0.3104E+02
  13.938  0.8736E+00  0.3105E+02
  13.948  0.8886E+00  0.3106E+02
  13.958  0.9038E+00  0.3107E+02
  13.968  0.9191E+00  0.3108E+02
  13.978  0.9346E+00  0.3109E+02
  13.988  0.9502E+00  0.3110E+02
  13.998  0.9660E+00  0.3110E+02
  14.008  0.9818E+00  0.3111E+02
  14.018  0.9978E+00  0.3112E+02
  14.028  0.1014E+01  0.3113E+02
  14.038  0.1030E+01  0.3115E+02
  14.048  0.1046E+01  0.3116E+02
  14.058  0.1062E+01  0.3117E+02
  14.068  0.1079E+01  0.3118E+02
  14.078  0.1095E+01  0.3119E+02
  14.088  0.1111E+01  0.3120E+02
  14.098  0.1127E+01  0.3121E+02
  14.108  0.1144E+01  0.3122E+02
  14.118  0.1160E+01  0.3123E+02
  14.128  0.1176E+01  0.3125E+02
  14.138  0.1192E+01  0.3126E+02
  14.148  0.1208E+01  0.3127E+02
  14.158  0.1224E+01  0.3128E+02
  14.168  0.1240E+01  0.3129E+02
  14.178  0.1255E+01  0.3131E+02
  14.188  0.1271E+01  0.3132E+02
  14.198  0.1287E+01  0.3133E+02
  14.208  0.1302E+01  0.3134E+02
  14.218  0.1317E+01  0.3136E+02
  14.228  0.1332E+01  0.3137E+02
  14.238  0.1347E+01  0.3138E+02
  14.248  0.1362E+01  0.3140E+02
  14.258  0.1376E+01  0.3141E+02
  14.268  0.1390E+01  0.3143E+02
  14.278  0.1405E+01  0.3144E+02
  14.288  0.1419E+01  0.3145E+02
  14.298  0.1432E+01  0.3147E+02
  14.308  0.1446E+01  0.3148E+02
  14.318  0.1459E+01  0.3150E+02
  14.328  0.1472E+01  0.3151E+02
  14.338  0.1485E+01  0.3153E+02
  14.348  0.1498E+01  0.3154E+02
  14.358  0.1510E+01  0.3156E+02
  14.368  0.1522E+01  0.3157E+02
  14.378  0.1534E+01  0.3159E+02
  14.388  0.1546E+01  0.3160E+02
  14.398  0.1557E+01  0.3162E+02
  14.408  0.1569E+01  0.3163E+02
  14.418  0.1580E+01  0.3165E+02
  14.428  0.1590E+01  0.3167E+02
  14.438  0.1601E+01  0.3168E+02
  14.448  0.1611E+01  0.3170E+02
  14.458  0.1621E+01  0.3171E+02
  14.468  0.1631E+01  0.3173E+02
  14.478  0.1640E+01  0.3175E+02
  14.488  0.1649E+01  0.3176E+02
  14.498  0.1658E+01  0.3178E+02
  14.508  0.1667E+01  0.3180E+02
  14.518  0.1675E+01  0.3181E+02
  14.528  0.1683E+01  0.3183E+02
  14.538  0.1691E+01  0.3185E+02
  14.548  0.1699E+01  0.3186E+02
  14.558  0.1706E+01  0.3188E+02
  14.568  0.1713E+01  0.3190E+02
  14.578  0.1720E+01  0.3192E+02
  14.588  0.1727E+01  0.3193E+02
  14.598  0.1733E+01  0.3195E+02
  14.608  0.1739E+01  0.3197E+02
  14.618  0.1744E+01  0.3199E+02
  14.628  0.1750E+01  0.3200E+02
  14.638  0.1755E+01  0.3202E+02
  14.648  0.1760E+01  0.3204E+02
  14.658  0.1764E+01  0.3206E+02
  14.668  0.1768E+01  0.3207E+02
  14.678  0.1772E+01  0.3209E+02
  14.688  0.1776E+01  0.3211E+02
  14.698  0.1779E+01  0.3213E+02
  14.708  0.1782E+01  0.3214E+02
  14.718  0.1785E+01  0.3216E+02
  14.728  0.1787E+01  0.3218E+02
  14.738  0.1789E+01  0.3220E+02
  14.748  0.1791E+01  0.3222E+02
  14.758  0.1792E+01  0.3223E+02
  14.768  0.1793E+01  0.3225E+02
  14.778  0.1793E+01  0.3227E+02
  14.788  0.1793E+01  0.3229E+02
  14.798  0.1793E+01  0.3231E+02
  14.808  0.1793E+01  0.3232E+02
  14.818  0.1792E+01  0.3234E+02
  14.828  0.1790E+01  0.3236E+02
  14.838  0.1789E+01  0.3238E+02
  14.848  0.1787E+01  0.3240E+02
  14.858  0.1784E+01  0.3241E+02
  14.868  0.1781E+01  0.3243E+02
  14.878  0.1778E+01  0.3245E+02
  14.888  0.1774E+01  0.3247E+02
  14.898  0.1770E+01  0.3248E+02
  14.908  0.1766E+01  0.3250E+02
  14.918  0.1761E+01  0.3252E+02
  14.928  0.1756E+01  0.3254E+02
  14.938  0.1750E+01  0.3255E+02
  14.948  0.1744E+01  0.3257E+02
  14.958  0.1737E+01  0.3259E+02
  14.968  0.1730E+01  0.3261E+02
  14.978  0.1723E+01  0.3262E+02
  14.988  0.1715E+01  0.3264E+02
  14.998  0.1707E+01  0.3266E+02
  15.008  0.1699E+01  0.3267E+02
  15.018  0.1690E+01  0.3269E+02
  15.028  0.1681E+01  0.3271E+02
  15.038  0.1671E+01  0.3273E+02
  15.048  0.1661E+01  0.3274E+02
  15.058  0.1651E+01  0.3276E+02
  15.068  0.1640E+01  0.3277E+02
  15.078  0.1629E+01  0.3279E+02
  15.088  0.1618E+01  0.3281E+02
  15.098  0.1607E+01  0.3282E+02
  15.108  0.1595E+01  0.3284E+02
  15.118  0.1583E+01  0.3286E+02
  15.128  0.1570E+01  0.3287E+02
  15.138  0.1558E+01  0.3289E+02
  15.148  0.1545E+01  0.3290E+02
  15.158  0.1532E+01  0.3292E+02
  15.168  0.1519E+01  0.3293E+02
  15.178  0.1505E+01  0.3295E+02
  15.188  0.1492E+01  0.3296E+02
  15.198  0.1478E+01  0.3298E+02
  15.208  0.1464E+01  0.3299E+02
  15.218  0.1450E+01  0.3301E+02
  15.228  0.1436E+01  0.3302E+02
  15.238  0.1422E+01  0.3303E+02
  15.248  0.1408E+01  0.3305E+02
  15.258  0.1394E+01  0.3306E+02
  15.268  0.1380E+01  0.3308E+02
  15.278  0.1366E+01  0.3309E+02
  15.288  0.1352E+01  0.3310E+02
  15.298  0.1339E+01  0.3312E+02
  15.308  0.1325E+01  0.3313E+02
  15.318  0.1311E+01  0.3314E+02
  15.328  0.1298E+01  0.3316E+02
  15.338  0.1284E+01  0.3317E+02
  15.348  0.1271E+01  0.3318E+02
  15.358  0.1258E+01  0.3319E+02
  15.368  0.1246E+01  0.3321E+02
  15.378  0.1233E+01  0.3322E+02
  15.388  0.1221E+01  0.3323E+02
  15.398  0.1209E+01  0.3324E+02
  15.408  0.1198E+01  0.3326E+02
  15.418  0.1187E+01  0.3327E+02
  15.428  0.1176E+01  0.3328E+02
  15.438  0.1166E+01  0.3329E+02
  15.448  0.1156E+01  0.3330E+02
  15.458  0.1146E+01  0.3331E+02
  15.468  0.1137E+01  0.3333E+02
  15.478  0.1128E+01  0.3334E+02
  15.488  0.1120E+01  0.3335E+02
  15.498  0.1112E+01  0.3336E+02
  15.508  0.1105E+01  0.3337E+02
  15.518  0.1098E+01  0.3338E+02
  15.528  0.1092E+01  0.3339E+02
  15.538  0.1087E+01  0.3340E+02
  15.548  0.1081E+01  0.3341E+02
  15.558  0.1077E+01  0.3342E+02
  15.568  0.1073E+01  0.3344E+02
  15.578  0.1069E+01  0.3345E+02
  15.588  0.1066E+01  0.3346E+02
  15.598  0.1064E+01  0.3347E+02
  15.608  0.1062E+01  0.3348E+02
  15.618  0.1061E+01  0.3349E+02
  15.628  0.1060E+01  0.3350E+02
  15.638  0.1060E+01  0.3351E+02
  15.648  0.1060E+01  0.3352E+02
  15.658  0.1061E+01  0.3353E+02
  15.668  0.1063E+01  0.3354E+02
  15.678  0.1065E+01  0.3355E+02
  15.688  0.1068E+01  0.3356E+02
  15.698  0.1071E+01  0.3357E+02
  15.708  0.1074E+01  0.3358E+02
  15.718  0.1078E+01  0.3360E+02
  15.728  0.1083E+01  0.3361E+02
  15.738  0.1088E+01  0.3362E+02
  15.748  0.1093E+01  0.3363E+02
  15.758  0.1099E+01  0.3364E+02
  15.768  0.1106E+01  0.3365E+02
  15.778  0.1113E+01  0.3366E+02
  15.788  0.1120E+01  0.3367E+02
  15.798  0.1127E+01  0.3368E+02
  15.808  0.1135E+01  0.3369E+02
  15.818  0.1143E+01  0.3371E+02
  15.828  0.1152E+01  0.3372E+02
  15.838  0.1160E+01  0.3373E+02
  15.848  0.1169E+01  0.3374E+02
  15.858  0.1179E+01  0.3375E+02
  15.868  0.1188E+01  0.3376E+02
  15.878  0.1198E+01  0.3378E+02
  15.888  0.1207E+01  0.3379E+02
  15.898  0.1217E+01  0.3380E+02
  15.908  0.1227E+01  0.3381E+02
  15.918  0.1237E+01  0.3383E+02
  15.928  0.1247E+01  0.3384E+02
  15.938  0.1257E+01  0.3385E+02
  15.948  0.1267E+01  0.3386E+02
  15.958  0.1277E+01  0.3388E+02
  15.968  0.1287E+01  0.3389E+02
  15.978  0.1297E+01  0.3390E+02
  15.988  0.1307E+01  0.3391E+02
  15.998  0.1317E+01  0.3393E+02
  16.008  0.1326E+01  0.3394E+02
  16.018  0.1336E+01  0.3395E+02
  16.028  0.1345E+01  0.3397E+02
  16.038  0.1354E+01  0.3398E+02
  16.048  0.1362E+01  0.3400E+02
  16.058  0.1371E+01  0.3401E+02
  16.068  0.1379E+01  0.3402E+02
  16.078  0.1387E+01  0.3404E+02
  16.088  0.1395E+01  0.3405E+02
  16.098  0.1402E+01  0.3406E+02
  16.108  0.1409E+01  0.3408E+02
  16.118  0.1415E+01  0.3409E+02
  16.128  0.1421E+01  0.3411E+02
  16.138  0.1427E+01  0.3412E+02
  16.148  0.1433E+01  0.3414E+02
  16.158  0.1438E+01  0.3415E+02
  16.168  0.1442E+01  0.3416E+02
  16.178  0.1447E+01  0.3418E+02
  16.188  0.1450E+01  0.3419E+02
  16.198  0.1454E+01  0.3421E+02
  16.208  0.1457E+01  0.3422E+02
  16.218  0.1459E+01  0.3424E+02
  16.228  0.1462E+01  0.3425E+02
  16.238  0.1463E+01  0.3427E+02
  16.248  0.1465E+01  0.3428E+02
  16.258  0.1466E+01  0.3430E+02
  16.268  0.1466E+01  0.3431E+02
  16.278  0.1466E+01  0.3433E+02
  16.288  0.1466E+01  0.3434E+02
  16.298  0.1466E+01  0.3435E+02
  16.308  0.1465E+01  0.3437E+02
  16.318  0.1463E+01  0.3438E+02
  16.328  0.1462E+01  0.3440E+02
  16.338  0.1460E+01  0.3441E+02
  16.348  0.1458E+01  0.3443E+02
  16.358  0.1455E+01  0.3444E+02
  16.368  0.1452E+01  0.3446E+02
  16.378  0.1449E+01  0.3447E+02
  16.388  0.1446E+01  0.3449E+02
  16.398  0.1442E+01  0.3450E+02
  16.408  0.1438E+01  0.3451E+02
  16.418  0.1434E+01  0.3453E+02
  16.428  0.1430E+01  0.3454E+02
  16.438  0.1425E+01  0.3456E+02
  16.448  0.1421E+01  0.3457E+02
  16.458  0.1416E+01  0.3459E+02
  16.468  0.1411E+01  0.3460E+02
  16.478  0.1406E+01  0.3461E+02
  16.488  0.1401E+01  0.3463E+02
  16.498  0.1396E+01  0.3464E+02
  16.508  0.1391E+01  0.3466E+02
  16.518  0.1386E+01  0.3467E+02
  16.528  0.1380E+01  0.3468E+02
  16.538  0.1375E+01  0.3470E+02
  16.548  0.1370E+01  0.3471E+02
  16.558  0.1365E+01  0.3472E+02
  16.568  0.1360E+01  0.3474E+02
  16.578  0.1355E+01  0.3475E+02
  16.588  0.1350E+01  0.3477E+02
  16.598  0.1345E+01  0.3478E+02
  16.608  0.1340E+01  0.3479E+02
  16.618  0.1335E+01  0.3481E+02
  16.628  0.1330E+01  0.3482E+02
  16.638  0.1326E+01  0.3483E+02
  16.648  0.1321E+01  0.3485E+02
  16.658  0.1317E+01  0.3486E+02
  16.668  0.1313E+01  0.3487E+02
  16.678  0.1309E+01  0.3488E+02
  16.688  0.1305E+01  0.3490E+02
  16.698  0.1302E+01  0.3491E+02
  16.708  0.1298E+01  0.3492E+02
  16.718  0.1295E+01  0.3494E+02
  16.728  0.1292E+01  0.3495E+02
  16.738  0.1289E+01  0.3496E+02
  16.748  0.1286E+01  0.3498E+02
  16.758  0.1283E+01  0.3499E+02
  16.768  0.1281E+01  0.3500E+02
  16.778  0.1279E+01  0.3501E+02
  16.788  0.1277E+01  0.3503E+02
  16.798  0.1275E+01  0.3504E+02
  16.808  0.1273E+01  0.3505E+02
  16.818  0.1271E+01  0.3506E+02
  16.828  0.1270E+01  0.3508E+02
  16.838  0.1269E+01  0.3509E+02
  16.848  0.1268E+01  0.3510E+02
  16.858  0.1267E+01  0.3512E+02
  16.868  0.1266E+01  0.3513E+02
  16.878  0.1265E+01  0.3514E+02
  16.888  0.1265E+01  0.3515E+02
  16.898  0.1264E+01  0.3517E+02
  16.908  0.1264E+01  0.3518E+02
  16.918  0.1264E+01  0.3519E+02
  16.928  0.1263E+01  0.3520E+02
  16.938  0.1263E+01  0.3522E+02
  16.948  0.1263E+01  0.3523E+02
  16.958  0.1263E+01  0.3524E+02
  16.968  0.1264E+01  0.3525E+02
  16.978  0.1264E+01  0.3527E+02
  16.988  0.1264E+01  0.3528E+02
  16.998  0.1264E+01  0.3529E+02
  17.008  0.1265E+01  0.3530E+02
  17.018  0.1265E+01  0.3532E+02
  17.028  0.1265E+01  0.3533E+02
  17.038  0.1266E+01  0.3534E+02
  17.048  0.1266E+01  0.3536E+02
  17.058  0.1267E+01  0.3537E+02
  17.068  0.1267E+01  0.3538E+02
  17.078  0.1267E+01  0.3539E+02
  17.088  0.1268E+01  0.3541E+02
  17.098  0.1268E+01  0.3542E+02
  17.108  0.1268E+01  0.3543E+02
  17.118  0.1268E+01  0.3544E+02
  17.128  0.1269E+01  0.3546E+02
  17.138  0.1269E+01  0.3547E+02
  17.148  0.1269E+01  0.3548E+02
  17.158  0.1269E+01  0.3549E+02
  17.168  0.1269E+01  0.3551E+02
  17.178  0.1269E+01  0.3552E+02
  17.188  0.1268E+01  0.3553E+02
  17.198  0.1268E+01  0.3555E+02
  17.208  0.1268E+01  0.3556E+02
  17.218  0.1268E+01  0.3557E+02
  17.228  0.1267E+01  0.3558E+02
  17.238  0.1267E+01  0.3560E+02
  17.248  0.1266E+01  0.3561E+02
  17.258  0.1265E+01  0.3562E+02
  17.268  0.1265E+01  0.3563E+02
  17.278  0.1264E+01  0.3565E+02
  17.288  0.1263E+01  0.3566E+02
  17.298  0.1262E+01  0.3567E+02
  17.308  0.1261E+01  0.3568E+02
  17.318  0.1260E+01  0.3570E+02
  17.328  0.1259E+01  0.3571E+02
  17.338  0.1258E+01  0.3572E+02
  17.348  0.1257E+01  0.3574E+02
  17.358  0.1256E+01  0.3575E+02
  17.368  0.1255E+01  0.3576E+02
  17.378  0.1253E+01  0.3577E+02
  17.388  0.1252E+01  0.3579E+02
  17.398  0.1251E+01  0.3580E+02
  17.408  0.1250E+01  0.3581E+02
  17.418  0.1249E+01  0.3582E+02
  17.428  0.1248E+01  0.3584E+02
  17.438  0.1246E+01  0.3585E+02
  17.448  0.1245E+01  0.3586E+02
  17.458  0.1244E+01  0.3587E+02
  17.468  0.1243E+01  0.3589E+02
  17.478  0.1242E+01  0.3590E+02
  17.488  0.1242E+01  0.3591E+02
  17.498  0.1241E+01  0.3592E+02
  17.508  0.1240E+01  0.3593E+02
  17.518  0.1239E+01  0.3595E+02
  17.528  0.1239E+01  0.3596E+02
  17.538  0.1238E+01  0.3597E+02
  17.548  0.1238E+01  0.3598E+02
  17.558  0.1238E+01  0.3600E+02
  17.568  0.1238E+01  0.3601E+02
  17.578  0.1238E+01  0.3602E+02
  17.588  0.1238E+01  0.3603E+02
  17.598  0.1239E+01  0.3605E+02
  17.608  0.1239E+01  0.3606E+02
  17.618  0.1240E+01  0.3607E+02
  17.628  0.1241E+01  0.3608E+02
  17.638  0.1242E+01  0.3610E+02
  17.648  0.1243E+01  0.3611E+02
  17.658  0.1244E+01  0.3612E+02
  17.668  0.1246E+01  0.3613E+02
  17.678  0.1248E+01  0.3615E+02
  17.688  0.1250E+01  0.3616E+02
  17.698  0.1252E+01  0.3617E+02
  17.708  0.1254E+01  0.3618E+02
  17.718  0.1257E+01  0.3620E+02
  17.728  0.1259E+01  0.3621E+02
  17.738  0.1262E+01  0.3622E+02
  17.748  0.1265E+01  0.3623E+02
  17.758  0.1268E+01  0.3625E+02
  17.768  0.1272E+01  0.3626E+02
  17.778  0.1276E+01  0.3627E+02
  17.788  0.1279E+01  0.3628E+02
  17.798  0.1283E+01  0.3630E+02
  17.808  0.1288E+01  0.3631E+02
  17.818  0.1292E+01  0.3632E+02
  17.828  0.1296E+01  0.3634E+02
  17.838  0.1301E+01  0.3635E+02
  17.848  0.1306E+01  0.3636E+02
  17.858  0.1311E+01  0.3638E+02
  17.868  0.1316E+01  0.3639E+02
  17.878  0.1321E+01  0.3640E+02
  17.888  0.1326E+01  0.3641E+02
  17.898  0.1332E+01  0.3643E+02
  17.908  0.1337E+01  0.3644E+02
  17.918  0.1343E+01  0.3646E+02
  17.928  0.1349E+01  0.3647E+02
  17.938  0.1354E+01  0.3648E+02
  17.948  0.1360E+01  0.3650E+02
  17.958  0.1366E+01  0.3651E+02
  17.968  0.1372E+01  0.3652E+02
  17.978  0.1378E+01  0.3654E+02
  17.988  0.1384E+01  0.3655E+02
  17.998  0.1390E+01  0.3656E+02
  18.008  0.1395E+01  0.3658E+02
  18.018  0.1401E+01  0.3659E+02
  18.028  0.1407E+01  0.3661E+02
  18.038  0.1413E+01  0.3662E+02
  18.048  0.1418E+01  0.3663E+02
  18.058  0.1424E+01  0.3665E+02
  18.068  0.1429E+01  0.3666E+02
  18.078  0.1435E+01  0.3668E+02
  18.088  0.1440E+01  0.3669E+02
  18.098  0.1445E+01  0.3671E+02
  18.108  0.1450E+01  0.3672E+02
  18.118  0.1454E+01  0.3674E+02
  18.128  0.1459E+01  0.3675E+02
  18.138  0.1463E+01  0.3676E+02
  18.148  0.1467E+01  0.3678E+02
  18.158  0.1471E+01  0.3679E+02
  18.168  0.1475E+01  0.3681E+02
  18.178  0.1478E+01  0.3682E+02
  18.188  0.1481E+01  0.3684E+02
  18.198  0.1484E+01  0.3685E+02
  18.208  0.1486E+01  0.3687E+02
  18.218  0.1488E+01  0.3688E+02
  18.228  0.1490E+01  0.3690E+02
  18.238  0.1492E+01  0.3691E+02
  18.248  0.1493E+01  0.3693E+02
  18.258  0.1494E+01  0.3694E+02
  18.268  0.1495E+01  0.3696E+02
  18.278  0.1495E+01  0.3697E+02
  18.288  0.1495E+01  0.3699E+02
  18.298  0.1494E+01  0.3700E+02
  18.308  0.1493E+01  0.3702E+02
  18.318  0.1492E+01  0.3703E+02
  18.328  0.1490E+01  0.3705E+02
  18.338  0.1488E+01  0.3706E+02
  18.348  0.1486E+01  0.3708E+02
  18.358  0.1483E+01  0.3709E+02
  18.368  0.1480E+01  0.3711E+02
  18.378  0.1476E+01  0.3712E+02
  18.388  0.1472E+01  0.3714E+02
  18.398  0.1468E+01  0.3715E+02
  18.408  0.1463E+01  0.3717E+02
  18.418  0.1458E+01  0.3718E+02
  18.428  0.1452E+01  0.3719E+02
  18.438  0.1446E+01  0.3721E+02
  18.448  0.1440E+01  0.3722E+02
  18.458  0.1433E+01  0.3724E+02
  18.468  0.1426E+01  0.3725E+02
  18.478  0.1418E+01  0.3727E+02
  18.488  0.1410E+01  0.3728E+02
  18.498  0.1402E+01  0.3729E+02
  18.508  0.1393E+01  0.3731E+02
  18.518  0.1384E+01  0.3732E+02
  18.528  0.1375E+01  0.3734E+02
  18.538  0.1365E+01  0.3735E+02
  18.548  0.1355E+01  0.3736E+02
  18.558  0.1345E+01  0.3738E+02
  18.568  0.1334E+01  0.3739E+02
  18.578  0.1323E+01  0.3740E+02
  18.588  0.1312E+01  0.3742E+02
  18.598  0.1301E+01  0.3743E+02
  18.608  0.1289E+01  0.3744E+02
  18.618  0.1277E+01  0.3746E+02
  18.628  0.1265E+01  0.3747E+02
  18.638  0.1253E+01  0.3748E+02
  18.648  0.1240E+01  0.3749E+02
  18.658  0.1228E+01  0.3750E+02
  18.668  0.1215E+01  0.3752E+02
  18.678  0.1202E+01  0.3753E+02
  18.688  0.1189E+01  0.3754E+02
  18.698  0.1176E+01  0.3755E+02
  18.708  0.1163E+01  0.3756E+02
  18.718  0.1149E+01  0.3758E+02
  18.728  0.1136E+01  0.3759E+02
  18.738  0.1123E+01  0.3760E+02
  18.748  0.1109E+01  0.3761E+02
  18.758  0.1096E+01  0.3762E+02
  18.768  0.1083E+01  0.3763E+02
  18.778  0.1070E+01  0.3764E+02
  18.788  0.1057E+01  0.3765E+02
  18.798  0.1044E+01  0.3766E+02
  18.808  0.1031E+01  0.3767E+02
  18.818  0.1018E+01  0.3768E+02
  18.828  0.1005E+01  0.3769E+02
  18.838  0.9930E+00  0.3770E+02
  18.848  0.9807E+00  0.3771E+02
  18.858  0.9687E+00  0.3772E+02
  18.868  0.9569E+00  0.3773E+02
  18.878  0.9454E+00  0.3774E+02
  18.888  0.9341E+00  0.3775E+02
  18.898  0.9231E+00  0.3776E+02
  18.908  0.9124E+00  0.3777E+02
  18.918  0.9020E+00  0.3778E+02
  18.928  0.8919E+00  0.3779E+02
  18.938  0.8821E+00  0.3780E+02
  18.948  0.8727E+00  0.3781E+02
  18.958  0.8637E+00  0.3781E+02
  18.968  0.8550E+00  0.3782E+02
  18.978  0.8467E+00  0.3783E+02
  18.988  0.8388E+00  0.3784E+02
  18.998  0.8313E+00  0.3785E+02
  19.008  0.8242E+00  0.3786E+02
  19.018  0.8175E+00  0.3786E+02
  19.028  0.8113E+00  0.3787E+02
  19.038  0.8055E+00  0.3788E+02
  19.048  0.8001E+00  0.3789E+02
  19.058  0.7952E+00  0.3790E+02
  19.068  0.7907E+00  0.3790E+02
  19.078  0.7866E+00  0.3791E+02
  19.088  0.7830E+00  0.3792E+02
  19.098  0.7798E+00  0.3793E+02
  19.108  0.7771E+00  0.3794E+02
  19.118  0.7749E+00  0.3794E+02
  19.128  0.7731E+00  0.3795E+02
  19.138  0.7717E+00  0.3796E+02
  19.148  0.7708E+00  0.3797E+02
  19.158  0.7704E+00  0.3797E+02
  19.168  0.7703E+00  0.3798E+02
  19.178  0.7707E+00  0.3799E+02
  19.188  0.7715E+00  0.3800E+02
  19.198  0.7728E+00  0.3800E+02
  19.208  0.7745E+00  0.3801E+02
  19.218  0.7765E+00  0.3802E+02
  19.228  0.7790E+00  0.3803E+02
  19.238  0.7819E+00  0.3804E+02
  19.248  0.7851E+00  0.3804E+02
  19.258  0.7887E+00  0.3805E+02
  19.268  0.7927E+00  0.3806E+02
  19.278  0.7970E+00  0.3807E+02
  19.288  0.8017E+00  0.3808E+02
  19.298  0.8067E+00  0.3808E+02
  19.308  0.8120E+00  0.3809E+02
  19.318  0.8176E+00  0.3810E+02
  19.328  0.8235E+00  0.3811E+02
  19.338  0.8297E+00  0.3812E+02
  19.348  0.8362E+00  0.3812E+02
  19.358  0.8430E+00  0.3813E+02
  19.368  0.8499E+00  0.3814E+02
  19.378  0.8572E+00  0.3815E+02
  19.388  0.8646E+00  0.3816E+02
  19.398  0.8722E+00  0.3817E+02
  19.408  0.8800E+00  0.3818E+02
  19.418  0.8881E+00  0.3819E+02
  19.428  0.8962E+00  0.3819E+02
  19.438  0.9045E+00  0.3820E+02
  19.448  0.9130E+00  0.3821E+02
  19.458  0.9216E+00  0.3822E+02
  19.468  0.9303E+00  0.3823E+02
  19.478  0.9391E+00  0.3824E+02
  19.488  0.9479E+00  0.3825E+02
  19.498  0.9569E+00  0.3826E+02
  19.508  0.9659E+00  0.3827E+02
  19.518  0.9749E+00  0.3828E+02
  19.528  0.9840E+00  0.3829E+02
  19.538  0.9931E+00  0.3830E+02
  19.548  0.1002E+01  0.3831E+02
  19.558  0.1011E+01  0.3832E+02
  19.568  0.1020E+01  0.3833E+02
  19.578  0.1029E+01  0.3834E+02
  19.588  0.1038E+01  0.3835E+02
  19.598  0.1047E+01  0.3836E+02
  19.608  0.1056E+01  0.3837E+02
  19.618  0.1065E+01  0.3838E+02
  19.628  0.1074E+01  0.3839E+02
  19.638  0.1082E+01  0.3840E+02
  19.648  0.1091E+01  0.3841E+02
  19.658  0.1099E+01  0.3842E+02
  19.668  0.1107E+01  0.3844E+02
  19.678  0.1115E+01  0.3845E+02
  19.688  0.1123E+01  0.3846E+02
  19.698  0.1131E+01  0.3847E+02
  19.708  0.1139E+01  0.3848E+02
  19.718  0.1146E+01  0.3849E+02
  19.728  0.1154E+01  0.3850E+02
  19.738  0.1161E+01  0.3852E+02
  19.748  0.1167E+01  0.3853E+02
  19.758  0.1174E+01  0.3854E+02
  19.768  0.1181E+01  0.3855E+02
  19.778  0.1187E+01  0.3856E+02
  19.788  0.1193E+01  0.3857E+02
  19.798  0.1199E+01  0.3859E+02
  19.808  0.1204E+01  0.3860E+02
  19.818  0.1210E+01  0.3861E+02
  19.828  0.1215E+01  0.3862E+02
  19.838  0.1220E+01  0.3863E+02
  19.848  0.1225E+01  0.3865E+02
  19.858  0.1229E+01  0.3866E+02
  19.868  0.1233E+01  0.3867E+02
  19.878  0.1237E+01  0.3868E+02
  19.888  0.1241E+01  0.3870E+02
  19.898  0.1245E+01  0.3871E+02
  19.908  0.1248E+01  0.3872E+02
  19.918  0.1251E+01  0.3873E+02
  19.928  0.1254E+01  0.3875E+02
  19.938  0.1257E+01  0.3876E+02
  19.948  0.1259E+01  0.3877E+02
  19.958  0.1262E+01  0.3878E+02
  19.968  0.1264E+01  0.3880E+02
  19.978  0.1266E+01  0.3881E+02
  19.988  0.1268E+01  0.3882E+02
  19.998  0.1269E+01  0.3884E+02
  20.008  0.1271E+01  0.3885E+02
  20.018  0.1272E+01  0.3886E+02
  20.028  0.1273E+01  0.3887E+02
  20.038  0.1274E+01  0.3889E+02
  20.048  0.1275E+01  0.3890E+02
  20.058  0.1276E+01  0.3891E+02
  20.068  0.1277E+01  0.3892E+02
  20.078  0.1277E+01  0.3894E+02
  20.088  0.1278E+01  0.3895E+02
  20.098  0.1278E+01  0.3896E+02
  20.108  0.1279E+01  0.3898E+02
  20.118  0.1279E+01  0.3899E+02
  20.128  0.1280E+01  0.3900E+02
  20.138  0.1280E+01  0.3901E+02
  20.148  0.1281E+01  0.3903E+02
  20.158  0.1281E+01  0.3904E+02
  20.168  0.1282E+01  0.3905E+02
  20.178  0.1282E+01  0.3907E+02
  20.188  0.1283E+01  0.3908E+02
  20.198  0.1284E+01  0.3909E+02
  20.208  0.1284E+01  0.3910E+02
  20.218  0.1285E+01  0.3912E+02
  20.228  0.1286E+01  0.3913E+02
  20.238  0.1287E+01  0.3914E+02
  20.248  0.1289E+01  0.3916E+02
  20.258  0.1290E+01  0.3917E+02
  20.268  0.1291E+01  0.3918E+02
  20.278  0.1293E+01  0.3919E+02
  20.288  0.1295E+01  0.3921E+02
  20.298  0.1297E+01  0.3922E+02
  20.308  0.1299E+01  0.3923E+02
  20.318  0.1302E+01  0.3925E+02
  20.328  0.1305E+01  0.3926E+02
  20.338  0.1308E+01  0.3927E+02
  20.348  0.1311E+01  0.3928E+02
  20.358  0.1314E+01  0.3930E+02
  20.368  0.1318E+01  0.3931E+02
  20.378  0.1321E+01  0.3932E+02
  20.388  0.1325E+01  0.3934E+02
  20.398  0.1330E+01  0.3935E+02
  20.408  0.1334E+01  0.3936E+02
  20.418  0.1339E+01  0.3938E+02
  20.428  0.1344E+01  0.3939E+02
  20.438  0.1349E+01  0.3940E+02
  20.448  0.1355E+01  0.3942E+02
  20.458  0.1360E+01  0.3943E+02
  20.468  0.1366E+01  0.3945E+02
  20.478  0.1372E+01  0.3946E+02
  20.488  0.1379E+01  0.3947E+02
  20.498  0.1385E+01  0.3949E+02
  20.508  0.1392E+01  0.3950E+02
  20.518  0.1399E+01  0.3951E+02
  20.528  0.1406E+01  0.3953E+02
  20.538  0.1414E+01  0.3954E+02
  20.548  0.1421E+01  0.3956E+02
  20.558  0.1429E+01  0.3957E+02
  20.568  0.1437E+01  0.3959E+02
  20.578  0.1444E+01  0.3960E+02
  20.588  0.1453E+01  0.3961E+02
  20.598  0.1461E+01  0.3963E+02
  20.608  0.1469E+01  0.3964E+02
  20.618  0.1477E+01  0.3966E+02
  20.628  0.1486E+01  0.3967E+02
  20.638  0.1494E+01  0.3969E+02
  20.648  0.1503E+01  0.3970E+02
  20.658  0.1512E+01  0.3972E+02
  20.668  0.1520E+01  0.3973E+02
  20.678  0.1529E+01  0.3975E+02
  20.688  0.1538E+01  0.3976E+02
  20.698  0.1546E+01  0.3978E+02
  20.708  0.1555E+01  0.3980E+02
  20.718  0.1564E+01  0.3981E+02
  20.728  0.1572E+01  0.3983E+02
  20.738  0.1581E+01  0.3984E+02
  20.748  0.1589E+01  0.3986E+02
  20.758  0.1598E+01  0.3987E+02
  20.768  0.1606E+01  0.3989E+02
  20.778  0.1614E+01  0.3991E+02
  20.788  0.1622E+01  0.3992E+02
  20.798  0.1630E+01  0.3994E+02
  20.808  0.1638E+01  0.3996E+02
  20.818  0.1646E+01  0.3997E+02
  20.828  0.1653E+01  0.3999E+02
  20.838  0.1660E+01  0.4001E+02
  20.848  0.1668E+01  0.4002E+02
  20.858  0.1675E+01  0.4004E+02
  20.868  0.1682E+01  0.4006E+02
  20.878  0.1688E+01  0.4007E+02
  20.888  0.1695E+01  0.4009E+02
  20.898  0.1701E+01  0.4011E+02
  20.908  0.1707E+01  0.4012E+02
  20.918  0.1713E+01  0.4014E+02
  20.928  0.1719E+01  0.4016E+02
  20.938  0.1725E+01  0.4018E+02
  20.948  0.1730E+01  0.4019E+02
  20.958  0.1736E+01  0.4021E+02
  20.968  0.1741E+01  0.4023E+02
  20.978  0.1746E+01  0.4024E+02
  20.988  0.1750E+01  0.4026E+02
  20.998  0.1755E+01  0.4028E+02
  21.008  0.1759E+01  0.4030E+02
  21.018  0.1763E+01  0.4031E+02
  21.028  0.1768E+01  0.4033E+02
  21.038  0.1771E+01  0.4035E+02
  21.048  0.1775E+01  0.4037E+02
  21.058  0.1779E+01  0.4039E+02
  21.068  0.1782E+01  0.4040E+02
  21.078  0.1786E+01  0.4042E+02
  21.088  0.1789E+01  0.4044E+02
  21.098  0.1792E+01  0.4046E+02
  21.108  0.1795E+01  0.4048E+02
  21.118  0.1798E+01  0.4049E+02
  21.128  0.1801E+01  0.4051E+02
  21.138  0.1804E+01  0.4053E+02
  21.148  0.1807E+01  0.4055E+02
  21.158  0.1810E+01  0.4057E+02
  21.168  0.1812E+01  0.4058E+02
  21.178  0.1815E+01  0.4060E+02
  21.188  0.1818E+01  0.4062E+02
  21.198  0.1821E+01  0.4064E+02
  21.208  0.1823E+01  0.4066E+02
  21.218  0.1826E+01  0.4067E+02
  21.228  0.1829E+01  0.4069E+02
  21.238  0.1832E+01  0.4071E+02
  21.248  0.1834E+01  0.4073E+02
  21.258  0.1837E+01  0.4075E+02
  21.268  0.1840E+01  0.4077E+02
  21.278  0.1843E+01  0.4078E+02
  21.288  0.1847E+01  0.4080E+02
  21.298  0.1850E+01  0.4082E+02
  21.308  0.1853E+01  0.4084E+02
  21.318  0.1857E+01  0.4086E+02
  21.328  0.1860E+01  0.4088E+02
  21.338  0.1864E+01  0.4090E+02
  21.348  0.1868E+01  0.4091E+02
  21.358  0.1872E+01  0.4093E+02
  21.368  0.1876E+01  0.4095E+02
  21.378  0.1881E+01  0.4097E+02
  21.388  0.1885E+01  0.4099E+02
  21.398  0.1890E+01  0.4101E+02
  21.408  0.1895E+01  0.4103E+02
  21.418  0.1900E+01  0.4105E+02
  21.428  0.1905E+01  0.4107E+02
  21.438  0.1910E+01  0.4108E+02
  21.448  0.1916E+01  0.4110E+02
  21.458  0.1921E+01  0.4112E+02
  21.468  0.1927E+01  0.4114E+02
  21.478  0.1933E+01  0.4116E+02
  21.488  0.1939E+01  0.4118E+02
  21.498  0.1946E+01  0.4120E+02
  21.508  0.1952E+01  0.4122E+02
  21.518  0.1959E+01  0.4124E+02
  21.528  0.1966E+01  0.4126E+02
  21.538  0.1972E+01  0.4128E+02
  21.548  0.1979E+01  0.4130E+02
  21.558  0.1987E+01  0.4132E+02
  21.568  0.1994E+01  0.4134E+02
  21.578  0.2001E+01  0.4136E+02
  21.588  0.2009E+01  0.4138E+02
  21.598  0.2016E+01  0.4140E+02
  21.608  0.2024E+01  0.4142E+02
  21.618  0.2032E+01  0.4144E+02
  21.628  0.2039E+01  0.4146E+02
  21.638  0.2047E+01  0.4148E+02
  21.648  0.2055E+01  0.4150E+02
  21.658  0.2063E+01  0.4152E+02
  21.668  0.2070E+01  0.4154E+02
  21.678  0.2078E+01  0.4156E+02
  21.688  0.2086E+01  0.4158E+02
  21.698  0.2094E+01  0.4161E+02
  21.708  0.2101E+01  0.4163E+02
  21.718  0.2109E+01  0.4165E+02
  21.728  0.2117E+01  0.4167E+02
  21.738  0.2124E+01  0.4169E+02
  21.748  0.2131E+01  0.4171E+02
  21.758  0.2139E+01  0.4173E+02
  21.768  0.2146E+01  0.4175E+02
  21.778  0.2153E+01  0.4178E+02
  21.788  0.2159E+01  0.4180E+02
  21.798  0.2166E+01  0.4182E+02
  21.808  0.2172E+01  0.4184E+02
  21.818  0.2178E+01  0.4186E+02
  21.828  0.2184E+01  0.4188E+02
  21.838  0.2190E+01  0.4191E+02
  21.848  0.2195E+01  0.4193E+02
  21.858  0.2200E+01  0.4195E+02
  21.868  0.2205E+01  0.4197E+02
  21.878  0.2210E+01  0.4199E+02
  21.888  0.2214E+01  0.4202E+02
  21.898  0.2218E+01  0.4204E+02
  21.908  0.2222E+01  0.4206E+02
  21.918  0.2225E+01  0.4208E+02
  21.928  0.2228E+01  0.4210E+02
  21.938  0.2230E+01  0.4213E+02
  21.948  0.2233E+01  0.4215E+02
  21.958  0.2235E+01  0.4217E+02
  21.968  0.2236E+01  0.4219E+02
  21.978  0.2237E+01  0.4222E+02
  21.988  0.2238E+01  0.4224E+02
  21.998  0.2238E+01  0.4226E+02
  22.008  0.2238E+01  0.4228E+02
  22.018  0.2238E+01  0.4231E+02
  22.028  0.2237E+01  0.4233E+02
  22.038  0.2236E+01  0.4235E+02
  22.048  0.2234E+01  0.4237E+02
  22.058  0.2232E+01  0.4240E+02
  22.068  0.2229E+01  0.4242E+02
  22.078  0.2226E+01  0.4244E+02
  22.088  0.2223E+01  0.4246E+02
  22.098  0.2219E+01  0.4248E+02
  22.108  0.2215E+01  0.4251E+02
  22.118  0.2211E+01  0.4253E+02
  22.128  0.2206E+01  0.4255E+02
  22.138  0.2200E+01  0.4257E+02
  22.148  0.2194E+01  0.4259E+02
  22.158  0.2188E+01  0.4262E+02
  22.168  0.2182E+01  0.4264E+02
  22.178  0.2175E+01  0.4266E+02
  22.188  0.2167E+01  0.4268E+02
  22.198  0.2159E+01  0.4270E+02
  22.208  0.2151E+01  0.4272E+02
  22.218  0.2143E+01  0.4275E+02
  22.228  0.2134E+01  0.4277E+02
  22.238  0.2125E+01  0.4279E+02
  22.248  0.2115E+01  0.4281E+02
  22.258  0.2105E+01  0.4283E+02
  22.268  0.2095E+01  0.4285E+02
  22.278  0.2084E+01  0.4287E+02
  22.288  0.2074E+01  0.4289E+02
  22.298  0.2062E+01  0.4291E+02
  22.308  0.2051E+01  0.4293E+02
  22.318  0.2039E+01  0.4296E+02
  22.328  0.2027E+01  0.4298E+02
  22.338  0.2015E+01  0.4300E+02
  22.348  0.2002E+01  0.4302E+02
  22.358  0.1990E+01  0.4304E+02
  22.368  0.1977E+01  0.4306E+02
  22.378  0.1963E+01  0.4307E+02
  22.388  0.1950E+01  0.4309E+02
  22.398  0.1936E+01  0.4311E+02
  22.408  0.1923E+01  0.4313E+02
  22.418  0.1909E+01  0.4315E+02
  22.428  0.1894E+01  0.4317E+02
  22.438  0.1880E+01  0.4319E+02
  22.448  0.1866E+01  0.4321E+02
  22.458  0.1851E+01  0.4323E+02
  22.468  0.1837E+01  0.4325E+02
  22.478  0.1822E+01  0.4326E+02
  22.488  0.1807E+01  0.4328E+02
  22.498  0.1792E+01  0.4330E+02
  22.508  0.1777E+01  0.4332E+02
  22.518  0.1762E+01  0.4334E+02
  22.528  0.1747E+01  0.4335E+02
  22.538  0.1732E+01  0.4337E+02
  22.548  0.1717E+01  0.4339E+02
  22.558  0.1702E+01  0.4340E+02
  22.568  0.1687E+01  0.4342E+02
  22.578  0.1672E+01  0.4344E+02
  22.588  0.1657E+01  0.4345E+02
  22.598  0.1642E+01  0.4347E+02
  22.608  0.1627E+01  0.4349E+02
  22.618  0.1612E+01  0.4350E+02
  22.628  0.1597E+01  0.4352E+02
  22.638  0.1583E+01  0.4353E+02
  22.648  0.1568E+01  0.4355E+02
  22.658  0.1554E+01  0.4357E+02
  22.668  0.1540E+01  0.4358E+02
  22.678  0.1526E+01  0.4360E+02
  22.688  0.1512E+01  0.4361E+02
  22.698  0.1498E+01  0.4363E+02
  22.708  0.1484E+01  0.4364E+02
  22.718  0.1471E+01  0.4366E+02
  22.728  0.1458E+01  0.4367E+02
  22.738  0.1445E+01  0.4369E+02
  22.748  0.1432E+01  0.4370E+02
  22.758  0.1419E+01  0.4371E+02
  22.768  0.1407E+01  0.4373E+02
  22.778  0.1395E+01  0.4374E+02
  22.788  0.1383E+01  0.4376E+02
  22.798  0.1371E+01  0.4377E+02
  22.808  0.1360E+01  0.4378E+02
  22.818  0.1349E+01  0.4380E+02
  22.828  0.1338E+01  0.4381E+02
  22.838  0.1327E+01  0.4382E+02
  22.848  0.1317E+01  0.4384E+02
  22.858  0.1307E+01  0.4385E+02
  22.868  0.1297E+01  0.4386E+02
  22.878  0.1287E+01  0.4388E+02
  22.888  0.1278E+01  0.4389E+02
  22.898  0.1269E+01  0.4390E+02
  22.908  0.1260E+01  0.4391E+02
  22.918  0.1252E+01  0.4393E+02
  22.928  0.1244E+01  0.4394E+02
  22.938  0.1236E+01  0.4395E+02
  22.948  0.1228E+01  0.4396E+02
  22.958  0.1221E+01  0.4398E+02
  22.968  0.1214E+01  0.4399E+02
  22.978  0.1207E+01  0.4400E+02
  22.988  0.1200E+01  0.4401E+02
  22.998  0.1194E+01  0.4402E+02
  23.008  0.1188E+01  0.4404E+02
  23.018  0.1182E+01  0.4405E+02
  23.028  0.1176E+01  0.4406E+02
  23.038  0.1171E+01  0.4407E+02
  23.048  0.1166E+01  0.4408E+02
  23.058  0.1161E+01  0.4409E+02
  23.068  0.1156E+01  0.4411E+02
  23.078  0.1151E+01  0.4412E+02
  23.088  0.1147E+01  0.4413E+02
  23.098  0.1143E+01  0.4414E+02
  23.108  0.1139E+01  0.4415E+02
  23.118  0.1135E+01  0.4416E+02
  23.128  0.1132E+01  0.4417E+02
  23.138  0.1129E+01  0.4418E+02
  23.148  0.1125E+01  0.4420E+02
  23.158  0.1122E+01  0.4421E+02
  23.168  0.1119E+01  0.4422E+02
  23.178  0.1117E+01  0.4423E+02
  23.188  0.1114E+01  0.4424E+02
  23.198  0.1112E+01  0.4425E+02
  23.208  0.1109E+01  0.4426E+02
  23.218  0.1107E+01  0.4427E+02
  23.228  0.1105E+01  0.4429E+02
  23.238  0.1103E+01  0.4430E+02
  23.248  0.1101E+01  0.4431E+02
  23.258  0.1099E+01  0.4432E+02
  23.268  0.1097E+01  0.4433E+02
  23.278  0.1096E+01  0.4434E+02
  23.288  0.1094E+01  0.4435E+02
  23.298  0.1093E+01  0.4436E+02
  23.308  0.1091E+01  0.4437E+02
  23.318  0.1090E+01  0.4438E+02
  23.328  0.1089E+01  0.4439E+02
  23.338  0.1087E+01  0.4441E+02
  23.348  0.1086E+01  0.4442E+02
  23.358  0.1085E+01  0.4443E+02
  23.368  0.1084E+01  0.4444E+02
  23.378  0.1083E+01  0.4445E+02
  23.388  0.1082E+01  0.4446E+02
  23.398  0.1081E+01  0.4447E+02
  23.408  0.1080E+01  0.4448E+02
  23.418  0.1079E+01  0.4449E+02
  23.428  0.1078E+01  0.4450E+02
  23.438  0.1077E+01  0.4451E+02
  23.448  0.1077E+01  0.4452E+02
  23.458  0.1076E+01  0.4454E+02
  23.468  0.1075E+01  0.4455E+02
  23.478  0.1075E+01  0.4456E+02
  23.488  0.1074E+01  0.4457E+02
  23.498  0.1074E+01  0.4458E+02
  23.508  0.1073E+01  0.4459E+02
  23.518  0.1073E+01  0.4460E+02
  23.528  0.1072E+01  0.4461E+02
  23.538  0.1072E+01  0.4462E+02
  23.548  0.1072E+01  0.4463E+02
  23.558  0.1072E+01  0.4464E+02
  23.568  0.1072E+01  0.4465E+02
  23.578  0.1071E+01  0.4466E+02
  23.588  0.1072E+01  0.4467E+02
  23.598  0.1072E+01  0.4469E+02
  23.608  0.1072E+01  0.4470E+02
  23.618  0.1072E+01  0.4471E+02
  23.628  0.1073E+01  0.4472E+02
  23.638  0.1073E+01  0.4473E+02
  23.648  0.1074E+01  0.4474E+02
  23.658  0.1074E+01  0.4475E+02
  23.668  0.1075E+01  0.4476E+02
  23.678  0.1076E+01  0.4477E+02
  23.688  0.1077E+01  0.4478E+02
  23.698  0.1078E+01  0.4479E+02
  23.708  0.1080E+01  0.4480E+02
  23.718  0.1081E+01  0.4481E+02
  23.728  0.1082E+01  0.4483E+02
  23.738  0.1084E+01  0.4484E+02
  23.748  0.1086E+01  0.4485E+02
  23.758  0.1088E+01  0.4486E+02
  23.768  0.1090E+01  0.4487E+02
  23.778  0.1092E+01  0.4488E+02
  23.788  0.1094E+01  0.4489E+02
  23.798  0.1096E+01  0.4490E+02
  23.808  0.1099E+01  0.4491E+02
  23.818  0.1101E+01  0.4492E+02
  23.828  0.1104E+01  0.4493E+02
  23.838  0.1107E+01  0.4495E+02
  23.848  0.1110E+01  0.4496E+02
  23.858  0.1113E+01  0.4497E+02
  23.868  0.1116E+01  0.4498E+02
  23.878  0.1119E+01  0.4499E+02
  23.888  0.1123E+01  0.4500E+02
  23.898  0.1126E+01  0.4501E+02
  23.908  0.1129E+01  0.4502E+02
  23.918  0.1133E+01  0.4504E+02
  23.928  0.1137E+01  0.4505E+02
  23.938  0.1140E+01  0.4506E+02
  23.948  0.1144E+01  0.4507E+02
  23.958  0.1148E+01  0.4508E+02
  23.968  0.1152E+01  0.4509E+02
  23.978  0.1156E+01  0.4510E+02
  23.988  0.1160E+01  0.4512E+02
  23.998  0.1164E+01  0.4513E+02
  24.008  0.1168E+01  0.4514E+02
  24.018  0.1172E+01  0.4515E+02
  24.028  0.1176E+01  0.4516E+02
  24.038  0.1179E+01  0.4517E+02
  24.048  0.1183E+01  0.4519E+02
  24.058  0.1187E+01  0.4520E+02
  24.068  0.1191E+01  0.4521E+02
  24.078  0.1194E+01  0.4522E+02
  24.088  0.1198E+01  0.4523E+02
  24.098  0.1202E+01  0.4525E+02
  24.108  0.1205E+01  0.4526E+02
  24.118  0.1208E+01  0.4527E+02
  24.128  0.1211E+01  0.4528E+02
  24.138  0.1214E+01  0.4529E+02
  24.148  0.1217E+01  0.4531E+02
  24.158  0.1219E+01  0.4532E+02
  24.168  0.1222E+01  0.4533E+02
  24.178  0.1224E+01  0.4534E+02
  24.188  0.1226E+01  0.4536E+02
  24.198  0.1228E+01  0.4537E+02
  24.208  0.1230E+01  0.4538E+02
  24.218  0.1231E+01  0.4539E+02
  24.228  0.1232E+01  0.4540E+02
  24.238  0.1233E+01  0.4542E+02
  24.248  0.1233E+01  0.4543E+02
  24.258  0.1234E+01  0.4544E+02
  24.268  0.1234E+01  0.4545E+02
  24.278  0.1233E+01  0.4547E+02
  24.288  0.1233E+01  0.4548E+02
  24.298  0.1232E+01  0.4549E+02
  24.308  0.1231E+01  0.4550E+02
  24.318  0.1229E+01  0.4552E+02
  24.328  0.1227E+01  0.4553E+02
  24.338  0.1225E+01  0.4554E+02
  24.348  0.1223E+01  0.4555E+02
  24.358  0.1220E+01  0.4556E+02
  24.368  0.1217E+01  0.4558E+02
  24.378  0.1213E+01  0.4559E+02
  24.388  0.1210E+01  0.4560E+02
  24.398  0.1205E+01  0.4561E+02
  24.408  0.1201E+01  0.4563E+02
  24.418  0.1196E+01  0.4564E+02
  24.428  0.1191E+01  0.4565E+02
  24.438  0.1186E+01  0.4566E+02
  24.448  0.1180E+01  0.4567E+02
  24.458  0.1174E+01  0.4568E+02
  24.468  0.1168E+01  0.4570E+02
  24.478  0.1161E+01  0.4571E+02
  24.488  0.1154E+01  0.4572E+02
  24.498  0.1147E+01  0.4573E+02
  24.508  0.1140E+01  0.4574E+02
  24.518  0.1132E+01  0.4575E+02
  24.528  0.1124E+01  0.4576E+02
  24.538  0.1116E+01  0.4578E+02
  24.548  0.1107E+01  0.4579E+02
  24.558  0.1099E+01  0.4580E+02
  24.568  0.1090E+01  0.4581E+02
  24.578  0.1081E+01  0.4582E+02
  24.588  0.1072E+01  0.4583E+02
  24.598  0.1062E+01  0.4584E+02
  24.608  0.1053E+01  0.4585E+02
  24.618  0.1043E+01  0.4586E+02
  24.628  0.1033E+01  0.4587E+02
  24.638  0.1023E+01  0.4588E+02
  24.648  0.1013E+01  0.4589E+02
  24.658  0.1003E+01  0.4590E+02
  24.668  0.9929E+00  0.4591E+02
  24.678  0.9827E+00  0.4592E+02
  24.688  0.9724E+00  0.4593E+02
  24.698  0.9621E+00  0.4594E+02
  24.708  0.9518E+00  0.4595E+02
  24.718  0.9414E+00  0.4596E+02
  24.728  0.9311E+00  0.4597E+02
  24.738  0.9209E+00  0.4598E+02
  24.748  0.9106E+00  0.4599E+02
  24.758  0.9004E+00  0.4600E+02
  24.768  0.8903E+00  0.4601E+02
  24.778  0.8803E+00  0.4601E+02
  24.788  0.8704E+00  0.4602E+02
  24.798  0.8605E+00  0.4603E+02
  24.808  0.8508E+00  0.4604E+02
  24.818  0.8412E+00  0.4605E+02
  24.828  0.8318E+00  0.4606E+02
  24.838  0.8225E+00  0.4607E+02
  24.848  0.8134E+00  0.4607E+02
  24.858  0.8044E+00  0.4608E+02
  24.868  0.7956E+00  0.4609E+02
  24.878  0.7870E+00  0.4610E+02
  24.888  0.7787E+00  0.4611E+02
  24.898  0.7705E+00  0.4611E+02
  24.908  0.7625E+00  0.4612E+02
  24.918  0.7548E+00  0.4613E+02
  24.928  0.7472E+00  0.4614E+02
  24.938  0.7399E+00  0.4614E+02
  24.948  0.7329E+00  0.4615E+02
  24.958  0.7261E+00  0.4616E+02
  24.968  0.7195E+00  0.4616E+02
  24.978  0.7132E+00  0.4617E+02
  24.988  0.7072E+00  0.4618E+02
  24.998  0.7014E+00  0.4619E+02
  25.008  0.6958E+00  0.4619E+02
  25.018  0.6906E+00  0.4620E+02
  25.028  0.6856E+00  0.4621E+02
  25.038  0.6808E+00  0.4621E+02
  25.048  0.6764E+00  0.4622E+02
  25.058  0.6722E+00  0.4623E+02
  25.068  0.6682E+00  0.4623E+02
  25.078  0.6646E+00  0.4624E+02
  25.088  0.6612E+00  0.4625E+02
  25.098  0.6581E+00  0.4625E+02
  25.108  0.6553E+00  0.4626E+02
  25.118  0.6528E+00  0.4627E+02
  25.128  0.6505E+00  0.4627E+02
  25.138  0.6485E+00  0.4628E+02
  25.148  0.6467E+00  0.4629E+02
  25.158  0.6453E+00  0.4629E+02
  25.168  0.6440E+00  0.4630E+02
  25.178  0.6431E+00  0.4631E+02
  25.188  0.6424E+00  0.4631E+02
  25.198  0.6420E+00  0.4632E+02
  25.208  0.6419E+00  0.4632E+02
  25.218  0.6420E+00  0.4633E+02
  25.228  0.6424E+00  0.4634E+02
  25.238  0.6430E+00  0.4634E+02
  25.248  0.6439E+00  0.4635E+02
  25.258  0.6450E+00  0.4636E+02
  25.268  0.6464E+00  0.4636E+02
  25.278  0.6481E+00  0.4637E+02
  25.288  0.6499E+00  0.4638E+02
  25.298  0.6521E+00  0.4638E+02
  25.308  0.6544E+00  0.4639E+02
  25.318  0.6571E+00  0.4640E+02
  25.328  0.6599E+00  0.4640E+02
  25.338  0.6630E+00  0.4641E+02
  25.348  0.6663E+00  0.4642E+02
  25.358  0.6698E+00  0.4642E+02
  25.368  0.6736E+00  0.4643E+02
  25.378  0.6776E+00  0.4644E+02
  25.388  0.6818E+00  0.4644E+02
  25.398  0.6862E+00  0.4645E+02
  25.408  0.6909E+00  0.4646E+02
  25.418  0.6957E+00  0.4646E+02
  25.428  0.7008E+00  0.4647E+02
  25.438  0.7061E+00  0.4648E+02
  25.448  0.7115E+00  0.4648E+02
  25.458  0.7172E+00  0.4649E+02
  25.468  0.7231E+00  0.4650E+02
  25.478  0.7291E+00  0.4651E+02
  25.488  0.7354E+00  0.4651E+02
  25.498  0.7418E+00  0.4652E+02
  25.508  0.7484E+00  0.4653E+02
  25.518  0.7552E+00  0.4654E+02
  25.528  0.7621E+00  0.4654E+02
  25.538  0.7692E+00  0.4655E+02
  25.548  0.7765E+00  0.4656E+02
  25.558  0.7839E+00  0.4657E+02
  25.568  0.7914E+00  0.4658E+02
  25.578  0.7991E+00  0.4658E+02
  25.588  0.8069E+00  0.4659E+02
  25.598  0.8148E+00  0.4660E+02
  25.608  0.8229E+00  0.4661E+02
  25.618  0.8310E+00  0.4662E+02
  25.628  0.8393E+00  0.4662E+02
  25.638  0.8476E+00  0.4663E+02
  25.648  0.8561E+00  0.4664E+02
  25.658  0.8645E+00  0.4665E+02
  25.668  0.8731E+00  0.4666E+02
  25.678  0.8817E+00  0.4667E+02
  25.688  0.8904E+00  0.4668E+02
  25.698  0.8990E+00  0.4669E+02
  25.708  0.9077E+00  0.4669E+02
  25.718  0.9164E+00  0.4670E+02
  25.728  0.9251E+00  0.4671E+02
  25.738  0.9338E+00  0.4672E+02
  25.748  0.9425E+00  0.4673E+02
  25.758  0.9511E+00  0.4674E+02
  25.768  0.9597E+00  0.4675E+02
  25.778  0.9682E+00  0.4676E+02
  25.788  0.9766E+00  0.4677E+02
  25.798  0.9849E+00  0.4678E+02
  25.808  0.9932E+00  0.4679E+02
  25.818  0.1001E+01  0.4680E+02
  25.828  0.1009E+01  0.4681E+02
  25.838  0.1017E+01  0.4682E+02
  25.848  0.1025E+01  0.4683E+02
  25.858  0.1032E+01  0.4684E+02
  25.868  0.1040E+01  0.4685E+02
  25.878  0.1047E+01  0.4686E+02
  25.888  0.1054E+01  0.4687E+02
  25.898  0.1060E+01  0.4688E+02
  25.908  0.1067E+01  0.4689E+02
  25.918  0.1073E+01  0.4690E+02
  25.928  0.1079E+01  0.4692E+02
  25.938  0.1085E+01  0.4693E+02
  25.948  0.1090E+01  0.4694E+02
  25.958  0.1095E+01  0.4695E+02
  25.968  0.1100E+01  0.4696E+02
  25.978  0.1104E+01  0.4697E+02
  25.988  0.1108E+01  0.4698E+02
  25.998  0.1112E+01  0.4699E+02
  26.008  0.1115E+01  0.4700E+02
  26.018  0.1118E+01  0.4701E+02
  26.028  0.1121E+01  0.4703E+02
  26.038  0.1123E+01  0.4704E+02
  26.048  0.1125E+01  0.4705E+02
  26.058  0.1127E+01  0.4706E+02
  26.068  0.1128E+01  0.4707E+02
  26.078  0.1129E+01  0.4708E+02
  26.088  0.1129E+01  0.4709E+02
  26.098  0.1129E+01  0.4710E+02
  26.108  0.1128E+01  0.4712E+02
  26.118  0.1127E+01  0.4713E+02
  26.128  0.1126E+01  0.4714E+02
  26.138  0.1124E+01  0.4715E+02
  26.148  0.1122E+01  0.4716E+02
  26.158  0.1120E+01  0.4717E+02
  26.168  0.1117E+01  0.4718E+02
  26.178  0.1113E+01  0.4719E+02
  26.188  0.1109E+01  0.4721E+02
  26.198  0.1105E+01  0.4722E+02
  26.208  0.1100E+01  0.4723E+02
  26.218  0.1095E+01  0.4724E+02
  26.228  0.1090E+01  0.4725E+02
  26.238  0.1084E+01  0.4726E+02
  26.248  0.1078E+01  0.4727E+02
  26.258  0.1072E+01  0.4728E+02
  26.268  0.1065E+01  0.4729E+02
  26.278  0.1058E+01  0.4730E+02
  26.288  0.1050E+01  0.4731E+02
  26.298  0.1042E+01  0.4732E+02
  26.308  0.1034E+01  0.4733E+02
  26.318  0.1026E+01  0.4734E+02
  26.328  0.1017E+01  0.4735E+02
  26.338  0.1008E+01  0.4736E+02
  26.348  0.9993E+00  0.4737E+02
  26.358  0.9899E+00  0.4738E+02
  26.368  0.9803E+00  0.4739E+02
  26.378  0.9705E+00  0.4740E+02
  26.388  0.9605E+00  0.4741E+02
  26.398  0.9503E+00  0.4742E+02
  26.408  0.9400E+00  0.4743E+02
  26.418  0.9295E+00  0.4744E+02
  26.428  0.9189E+00  0.4745E+02
  26.438  0.9082E+00  0.4746E+02
  26.448  0.8975E+00  0.4747E+02
  26.458  0.8866E+00  0.4748E+02
  26.468  0.8757E+00  0.4749E+02
  26.478  0.8647E+00  0.4750E+02
  26.488  0.8537E+00  0.4750E+02
  26.498  0.8427E+00  0.4751E+02
  26.508  0.8317E+00  0.4752E+02
  26.518  0.8207E+00  0.4753E+02
  26.528  0.8097E+00  0.4754E+02
  26.538  0.7987E+00  0.4754E+02
  26.548  0.7878E+00  0.4755E+02
  26.558  0.7770E+00  0.4756E+02
  26.568  0.7662E+00  0.4757E+02
  26.578  0.7556E+00  0.4758E+02
  26.588  0.7450E+00  0.4758E+02
  26.598  0.7345E+00  0.4759E+02
  26.608  0.7242E+00  0.4760E+02
  26.618  0.7139E+00  0.4761E+02
  26.628  0.7038E+00  0.4761E+02
  26.638  0.6938E+00  0.4762E+02
  26.648  0.6840E+00  0.4763E+02
  26.658  0.6743E+00  0.4763E+02
  26.668  0.6648E+00  0.4764E+02
  26.678  0.6554E+00  0.4765E+02
  26.688  0.6462E+00  0.4765E+02
  26.698  0.6372E+00  0.4766E+02
  26.708  0.6283E+00  0.4766E+02
  26.718  0.6196E+00  0.4767E+02
  26.728  0.6111E+00  0.4768E+02
  26.738  0.6027E+00  0.4768E+02
  26.748  0.5945E+00  0.4769E+02
  26.758  0.5865E+00  0.4770E+02
  26.768  0.5786E+00  0.4770E+02
  26.778  0.5709E+00  0.4771E+02
  26.788  0.5634E+00  0.4771E+02
  26.798  0.5560E+00  0.4772E+02
  26.808  0.5487E+00  0.4772E+02
  26.818  0.5417E+00  0.4773E+02
  26.828  0.5347E+00  0.4773E+02
  26.838  0.5279E+00  0.4774E+02
  26.848  0.5213E+00  0.4774E+02
  26.858  0.5148E+00  0.4775E+02
  26.868  0.5084E+00  0.4775E+02
  26.878  0.5021E+00  0.4776E+02
  26.888  0.4959E+00  0.4776E+02
  26.898  0.4899E+00  0.4777E+02
  26.908  0.4839E+00  0.4777E+02
  26.918  0.4780E+00  0.4778E+02
  26.928  0.4722E+00  0.4778E+02
  26.938  0.4665E+00  0.4779E+02
  26.948  0.4609E+00  0.4779E+02
  26.958  0.4554E+00  0.4780E+02
  26.968  0.4498E+00  0.4780E+02
  26.978  0.4444E+00  0.4781E+02
  26.988  0.4390E+00  0.4781E+02
  26.998  0.4336E+00  0.4782E+02
  27.008  0.4283E+00  0.4782E+02
  27.018  0.4230E+00  0.4782E+02
  27.028  0.4177E+00  0.4783E+02
  27.038  0.4125E+00  0.4783E+02
  27.048  0.4072E+00  0.4784E+02
  27.058  0.4020E+00  0.4784E+02
  27.068  0.3968E+00  0.4784E+02
  27.078  0.3915E+00  0.4785E+02
  27.088  0.3863E+00  0.4785E+02
  27.098  0.3810E+00  0.4786E+02
  27.108  0.3758E+00  0.4786E+02
  27.118  0.3705E+00  0.4786E+02
  27.128  0.3652E+00  0.4787E+02
  27.138  0.3599E+00  0.4787E+02
  27.148  0.3545E+00  0.4787E+02
  27.158  0.3492E+00  0.4788E+02
  27.168  0.3438E+00  0.4788E+02
  27.178  0.3384E+00  0.4788E+02
  27.188  0.3329E+00  0.4789E+02
  27.198  0.3275E+00  0.4789E+02
  27.208  0.3220E+00  0.4789E+02
  27.218  0.3165E+00  0.4790E+02
  27.228  0.3109E+00  0.4790E+02
  27.238  0.3054E+00  0.4790E+02
  27.248  0.2998E+00  0.4791E+02
  27.258  0.2942E+00  0.4791E+02
  27.268  0.2886E+00  0.4791E+02
  27.278  0.2830E+00  0.4792E+02
  27.288  0.2773E+00  0.4792E+02
  27.298  0.2717E+00  0.4792E+02
  27.308  0.2660E+00  0.4792E+02
  27.318  0.2603E+00  0.4793E+02
  27.328  0.2547E+00  0.4793E+02
  27.338  0.2490E+00  0.4793E+02
  27.348  0.2433E+00  0.4793E+02
  27.358  0.2377E+00  0.4794E+02
  27.368  0.2321E+00  0.4794E+02
  27.378  0.2264E+00  0.4794E+02
  27.388  0.2208E+00  0.4794E+02
  27.398  0.2153E+00  0.4794E+02
  27.408  0.2097E+00  0.4795E+02
  27.418  0.2042E+00  0.4795E+02
  27.428  0.1987E+00  0.4795E+02
  27.438  0.1933E+00  0.4795E+02
  27.448  0.1879E+00  0.4795E+02
  27.458  0.1826E+00  0.4796E+02
  27.468  0.1773E+00  0.4796E+02
  27.478  0.1721E+00  0.4796E+02
  27.488  0.1669E+00  0.4796E+02
  27.498  0.1618E+00  0.4796E+02
  27.508  0.1567E+00  0.4796E+02
  27.518  0.1517E+00  0.4797E+02
  27.528  0.1468E+00  0.4797E+02
  27.538  0.1420E+00  0.4797E+02
  27.548  0.1373E+00  0.4797E+02
  27.558  0.1326E+00  0.4797E+02
  27.568  0.1280E+00  0.4797E+02
  27.578  0.1235E+00  0.4797E+02
  27.588  0.1191E+00  0.4798E+02
  27.598  0.1147E+00  0.4798E+02
  27.608  0.1105E+00  0.4798E+02
  27.618  0.1063E+00  0.4798E+02
  27.628  0.1023E+00  0.4798E+02
  27.638  0.9832E-01  0.4798E+02
  27.648  0.9445E-01  0.4798E+02
  27.658  0.9068E-01  0.4798E+02
  27.668  0.8700E-01  0.4798E+02
  27.678  0.8342E-01  0.4798E+02
  27.688  0.7994E-01  0.4799E+02
  27.698  0.7655E-01  0.4799E+02
  27.708  0.7327E-01  0.4799E+02
  27.718  0.7008E-01  0.4799E+02
  27.728  0.6698E-01  0.4799E+02
  27.738  0.6398E-01  0.4799E+02
  27.748  0.6108E-01  0.4799E+02
  27.758  0.5827E-01  0.4799E+02
  27.768  0.5556E-01  0.4799E+02
  27.778  0.5293E-01  0.4799E+02
  27.788  0.5040E-01  0.4799E+02
  27.798  0.4796E-01  0.4799E+02
  27.808  0.4561E-01  0.4799E+02
  27.818  0.4334E-01  0.4799E+02
  27.828  0.4117E-01  0.4799E+02
  27.838  0.3907E-01  0.4799E+02
  27.848  0.3706E-01  0.4799E+02
  27.858  0.3513E-01  0.4799E+02
  27.868  0.3328E-01  0.4799E+02
  27.878  0.3150E-01  0.4800E+02
  27.888  0.2980E-01  0.4800E+02
  27.898  0.2818E-01  0.4800E+02
  27.908  0.2662E-01  0.4800E+02
  27.918  0.2514E-01  0.4800E+02
  27.928  0.2372E-01  0.4800E+02
  27.938  0.2236E-01  0.4800E+02
  27.948  0.2108E-01  0.4800E+02
  27.958  0.1985E-01  0.4800E+02
  27.968  0.1868E-01  0.4800E+02
  27.978  0.1757E-01  0.4800E+02
  27.988  0.1651E-01  0.4800E+02
  27.998  0.1551E-01  0.4800E+02
  28.008  0.1456E-01  0.4800E+02
  28.018  0.1365E-01  0.4800E+02
  28.028  0.1280E-01  0.4800E+02
  28.038  0.1199E-01  0.4800E+02
  28.048  0.1123E-01  0.4800E+02
  28.058  0.1050E-01  0.4800E+02
  28.068  0.9818E-02  0.4800E+02
  28.078  0.9173E-02  0.4800E+02
  28.088  0.8565E-02  0.4800E+02
  28.098  0.7992E-02  0.4800E+02
  28.108  0.7452E-02  0.4800E+02
  28.118  0.6944E-02  0.4800E+02
  28.128  0.6467E-02  0.4800E+02
  28.138  0.6018E-02  0.4800E+02
  28.148  0.5597E-02  0.4800E+02
  28.158  0.5202E-02  0.4800E+02
  28.168  0.4831E-02  0.4800E+02
  28.178  0.4484E-02  0.4800E+02
  28.188  0.4159E-02  0.4800E+02
  28.198  0.3855E-02  0.4800E+02
  28.208  0.3571E-02  0.4800E+02
  28.218  0.3306E-02  0.4800E+02
  28.228  0.3058E-02  0.4800E+02
  28.238  0.2827E-02  0.4800E+02
  28.248  0.2612E-02  0.4800E+02
  28.258  0.2411E-02  0.4800E+02
  28.268  0.2225E-02  0.4800E+02
  28.278  0.2051E-02  0.4800E+02
  28.288  0.1890E-02  0.4800E+02
  28.298  0.1740E-02  0.4800E+02
  28.308  0.1601E-02  0.4800E+02
  28.318  0.1472E-02  0.4800E+02
  28.328  0.1353E-02  0.4800E+02
  28.338  0.1242E-02  0.4800E+02
  28.348  0.1140E-02  0.4800E+02
  28.358  0.1046E-02  0.4800E+02
  28.368  0.9583E-03  0.4800E+02
  28.378  0.8776E-03  0.4800E+02
  28.388  0.8033E-03  0.4800E+02
  28.398  0.7347E-03  0.4800E+02
  28.408  0.6715E-03  0.4800E+02
  28.418  0.6134E-03  0.4800E+02
  28.428  0.5599E-03  0.4800E+02
  28.438  0.5108E-03  0.4800E+02
  28.448  0.4656E-03  0.4800E+02
  28.458  0.4241E-03  0.4800E+02
  28.468  0.3861E-03  0.4800E+02
  28.478  0.3513E-03  0.4800E+02
  28.488  0.3194E-03  0.4800E+02
  28.498  0.2902E-03  0.4800E+02
  28.508  0.2634E-03  0.4800E+02
  28.518  0.2390E-03  0.4800E+02
  28.528  0.2167E-03  0.4800E+02
  28.538  0.1964E-03  0.4800E+02
  28.548  0.1778E-03  0.4800E+02
  28.558  0.1609E-03  0.4800E+02
  28.568  0.1455E-03  0.4800E+02
  28.578  0.1315E-03  0.4800E+02
  28.588  0.1188E-03  0.4800E+02
  28.598  0.1072E-03  0.4800E+02
  28.608  0.9666E-04  0.4800E+02
  28.618  0.8712E-04  0.4800E+02
  28.628  0.7846E-04  0.4800E+02
  28.638  0.7062E-04  0.4800E+02
  28.648  0.6352E-04  0.4800E+02
  28.658  0.5709E-04  0.4800E+02
  28.668  0.5129E-04  0.4800E+02
  28.678  0.4604E-04  0.4800E+02
  28.688  0.4130E-04  0.4800E+02
  28.698  0.3702E-04  0.4800E+02
  28.708  0.3316E-04  0.4800E+02
