#  E (eV)   dos(E)     Int dos(E) EFermi =   10.838 eV
 -12.446  0.2793E-03  0.2793E-05
 -12.436  0.3146E-03  0.5938E-05
 -12.426  0.3541E-03  0.9479E-05
 -12.416  0.3983E-03  0.1346E-04
 -12.406  0.4477E-03  0.1794E-04
 -12.396  0.5030E-03  0.2297E-04
 -12.386  0.5647E-03  0.2862E-04
 -12.376  0.6336E-03  0.3495E-04
 -12.366  0.7104E-03  0.4206E-04
 -12.356  0.7961E-03  0.5002E-04
 -12.346  0.8915E-03  0.5893E-04
 -12.336  0.9976E-03  0.6891E-04
 -12.326  0.1116E-02  0.8007E-04
 -12.316  0.1247E-02  0.9254E-04
 -12.306  0.1393E-02  0.1065E-03
 -12.296  0.1555E-02  0.1220E-03
 -12.286  0.1734E-02  0.1394E-03
 -12.276  0.1933E-02  0.1587E-03
 -12.266  0.2154E-02  0.1802E-03
 -12.256  0.2398E-02  0.2042E-03
 -12.246  0.2668E-02  0.2309E-03
 -12.236  0.2967E-02  0.2606E-03
 -12.226  0.3297E-02  0.2935E-03
 -12.216  0.3661E-02  0.3301E-03
 -12.206  0.4063E-02  0.3708E-03
 -12.196  0.4506E-02  0.4158E-03
 -12.186  0.4994E-02  0.4658E-03
 -12.176  0.5532E-02  0.5211E-03
 -12.166  0.6123E-02  0.5823E-03
 -12.156  0.6774E-02  0.6500E-03
 -12.146  0.7488E-02  0.7249E-03
 -12.136  0.8273E-02  0.8077E-03
 -12.126  0.9134E-02  0.8990E-03
 -12.116  0.1008E-01  0.9998E-03
 -12.106  0.1111E-01  0.1111E-02
 -12.096  0.1225E-01  0.1233E-02
 -12.086  0.1349E-01  0.1368E-02
 -12.076  0.1484E-01  0.1517E-02
 -12.066  0.1633E-01  0.1680E-02
 -12.056  0.1795E-01  0.1859E-02
 -12.046  0.1971E-01  0.2057E-02
 -12.036  0.2164E-01  0.2273E-02
 -12.026  0.2374E-01  0.2510E-02
 -12.016  0.2603E-01  0.2771E-02
 -12.006  0.2852E-01  0.3056E-02
 -11.996  0.3122E-01  0.3368E-02
 -11.986  0.3417E-01  0.3710E-02
 -11.976  0.3736E-01  0.4083E-02
 -11.966  0.4083E-01  0.4492E-02
 -11.956  0.4460E-01  0.4938E-02
 -11.946  0.4868E-01  0.5424E-02
 -11.936  0.5310E-01  0.5955E-02
 -11.926  0.5788E-01  0.6534E-02
 -11.916  0.6305E-01  0.7165E-02
 -11.906  0.6864E-01  0.7851E-02
 -11.896  0.7468E-01  0.8598E-02
 -11.886  0.8120E-01  0.9410E-02
 -11.876  0.8824E-01  0.1029E-01
 -11.866  0.9582E-01  0.1125E-01
 -11.856  0.1040E+00  0.1229E-01
 -11.846  0.1128E+00  0.1342E-01
 -11.836  0.1222E+00  0.1464E-01
 -11.826  0.1324E+00  0.1596E-01
 -11.816  0.1433E+00  0.1740E-01
 -11.806  0.1550E+00  0.1895E-01
 -11.796  0.1676E+00  0.2062E-01
 -11.786  0.1811E+00  0.2243E-01
 -11.776  0.1955E+00  0.2439E-01
 -11.766  0.2110E+00  0.2650E-01
 -11.756  0.2275E+00  0.2877E-01
 -11.746  0.2452E+00  0.3123E-01
 -11.736  0.2640E+00  0.3387E-01
 -11.726  0.2842E+00  0.3671E-01
 -11.716  0.3057E+00  0.3977E-01
 -11.706  0.3286E+00  0.4305E-01
 -11.696  0.3530E+00  0.4658E-01
 -11.686  0.3790E+00  0.5037E-01
 -11.676  0.4066E+00  0.5444E-01
 -11.666  0.4359E+00  0.5880E-01
 -11.656  0.4671E+00  0.6347E-01
 -11.646  0.5002E+00  0.6847E-01
 -11.636  0.5353E+00  0.7382E-01
 -11.626  0.5725E+00  0.7955E-01
 -11.616  0.6119E+00  0.8567E-01
 -11.606  0.6536E+00  0.9220E-01
 -11.596  0.6977E+00  0.9918E-01
 -11.586  0.7443E+00  0.1066E+00
 -11.576  0.7935E+00  0.1146E+00
 -11.566  0.8455E+00  0.1230E+00
 -11.556  0.9002E+00  0.1320E+00
 -11.546  0.9579E+00  0.1416E+00
 -11.536  0.1019E+01  0.1518E+00
 -11.526  0.1083E+01  0.1626E+00
 -11.516  0.1150E+01  0.1741E+00
 -11.506  0.1220E+01  0.1863E+00
 -11.496  0.1295E+01  0.1993E+00
 -11.486  0.1372E+01  0.2130E+00
 -11.476  0.1454E+01  0.2275E+00
 -11.466  0.1539E+01  0.2429E+00
 -11.456  0.1629E+01  0.2592E+00
 -11.446  0.1722E+01  0.2764E+00
 -11.436  0.1820E+01  0.2946E+00
 -11.426  0.1922E+01  0.3138E+00
 -11.416  0.2028E+01  0.3341E+00
 -11.406  0.2139E+01  0.3555E+00
 -11.396  0.2255E+01  0.3781E+00
 -11.386  0.2376E+01  0.4018E+00
 -11.376  0.2501E+01  0.4268E+00
 -11.366  0.2631E+01  0.4531E+00
 -11.356  0.2766E+01  0.4808E+00
 -11.346  0.2907E+01  0.5099E+00
 -11.336  0.3052E+01  0.5404E+00
 -11.326  0.3203E+01  0.5724E+00
 -11.316  0.3360E+01  0.6060E+00
 -11.306  0.3521E+01  0.6412E+00
 -11.296  0.3688E+01  0.6781E+00
 -11.286  0.3861E+01  0.7167E+00
 -11.276  0.4039E+01  0.7571E+00
 -11.266  0.4223E+01  0.7994E+00
 -11.256  0.4412E+01  0.8435E+00
 -11.246  0.4607E+01  0.8895E+00
 -11.236  0.4807E+01  0.9376E+00
 -11.226  0.5014E+01  0.9878E+00
 -11.216  0.5225E+01  0.1040E+01
 -11.206  0.5442E+01  0.1094E+01
 -11.196  0.5665E+01  0.1151E+01
 -11.186  0.5893E+01  0.1210E+01
 -11.176  0.6126E+01  0.1271E+01
 -11.166  0.6364E+01  0.1335E+01
 -11.156  0.6608E+01  0.1401E+01
 -11.146  0.6857E+01  0.1470E+01
 -11.136  0.7110E+01  0.1541E+01
 -11.126  0.7369E+01  0.1614E+01
 -11.116  0.7632E+01  0.1691E+01
 -11.106  0.7899E+01  0.1770E+01
 -11.096  0.8170E+01  0.1851E+01
 -11.086  0.8446E+01  0.1936E+01
 -11.076  0.8725E+01  0.2023E+01
 -11.066  0.9008E+01  0.2113E+01
 -11.056  0.9295E+01  0.2206E+01
 -11.046  0.9584E+01  0.2302E+01
 -11.036  0.9876E+01  0.2401E+01
 -11.026  0.1017E+02  0.2502E+01
 -11.016  0.1047E+02  0.2607E+01
 -11.006  0.1077E+02  0.2715E+01
 -10.996  0.1107E+02  0.2825E+01
 -10.986  0.1137E+02  0.2939E+01
 -10.976  0.1167E+02  0.3056E+01
 -10.966  0.1198E+02  0.3176E+01
 -10.956  0.1228E+02  0.3298E+01
 -10.946  0.1258E+02  0.3424E+01
 -10.936  0.1288E+02  0.3553E+01
 -10.926  0.1319E+02  0.3685E+01
 -10.916  0.1349E+02  0.3820E+01
 -10.906  0.1378E+02  0.3958E+01
 -10.896  0.1408E+02  0.4098E+01
 -10.886  0.1437E+02  0.4242E+01
 -10.876  0.1467E+02  0.4389E+01
 -10.866  0.1495E+02  0.4538E+01
 -10.856  0.1524E+02  0.4691E+01
 -10.846  0.1551E+02  0.4846E+01
 -10.836  0.1579E+02  0.5004E+01
 -10.826  0.1606E+02  0.5164E+01
 -10.816  0.1632E+02  0.5327E+01
 -10.806  0.1658E+02  0.5493E+01
 -10.796  0.1683E+02  0.5662E+01
 -10.786  0.1707E+02  0.5832E+01
 -10.776  0.1731E+02  0.6005E+01
 -10.766  0.1754E+02  0.6181E+01
 -10.756  0.1776E+02  0.6358E+01
 -10.746  0.1797E+02  0.6538E+01
 -10.736  0.1817E+02  0.6720E+01
 -10.726  0.1836E+02  0.6903E+01
 -10.716  0.1855E+02  0.7089E+01
 -10.706  0.1872E+02  0.7276E+01
 -10.696  0.1889E+02  0.7465E+01
 -10.686  0.1904E+02  0.7655E+01
 -10.676  0.1918E+02  0.7847E+01
 -10.666  0.1932E+02  0.8040E+01
 -10.656  0.1944E+02  0.8235E+01
 -10.646  0.1955E+02  0.8430E+01
 -10.636  0.1964E+02  0.8626E+01
 -10.626  0.1973E+02  0.8824E+01
 -10.616  0.1980E+02  0.9022E+01
 -10.606  0.1986E+02  0.9220E+01
 -10.596  0.1991E+02  0.9420E+01
 -10.586  0.1995E+02  0.9619E+01
 -10.576  0.1997E+02  0.9819E+01
 -10.566  0.1998E+02  0.1002E+02
 -10.556  0.1998E+02  0.1022E+02
 -10.546  0.1997E+02  0.1042E+02
 -10.536  0.1994E+02  0.1062E+02
 -10.526  0.1991E+02  0.1082E+02
 -10.516  0.1986E+02  0.1102E+02
 -10.506  0.1979E+02  0.1121E+02
 -10.496  0.1972E+02  0.1141E+02
 -10.486  0.1963E+02  0.1161E+02
 -10.476  0.1953E+02  0.1180E+02
 -10.466  0.1942E+02  0.1200E+02
 -10.456  0.1930E+02  0.1219E+02
 -10.446  0.1917E+02  0.1238E+02
 -10.436  0.1902E+02  0.1257E+02
 -10.426  0.1887E+02  0.1276E+02
 -10.416  0.1870E+02  0.1295E+02
 -10.406  0.1852E+02  0.1313E+02
 -10.396  0.1834E+02  0.1332E+02
 -10.386  0.1814E+02  0.1350E+02
 -10.376  0.1794E+02  0.1368E+02
 -10.366  0.1773E+02  0.1385E+02
 -10.356  0.1750E+02  0.1403E+02
 -10.346  0.1727E+02  0.1420E+02
 -10.336  0.1704E+02  0.1437E+02
 -10.326  0.1679E+02  0.1454E+02
 -10.316  0.1654E+02  0.1470E+02
 -10.306  0.1628E+02  0.1487E+02
 -10.296  0.1602E+02  0.1503E+02
 -10.286  0.1575E+02  0.1519E+02
 -10.276  0.1547E+02  0.1534E+02
 -10.266  0.1519E+02  0.1549E+02
 -10.256  0.1491E+02  0.1564E+02
 -10.246  0.1462E+02  0.1579E+02
 -10.236  0.1433E+02  0.1593E+02
 -10.226  0.1404E+02  0.1607E+02
 -10.216  0.1374E+02  0.1621E+02
 -10.206  0.1344E+02  0.1634E+02
 -10.196  0.1314E+02  0.1647E+02
 -10.186  0.1284E+02  0.1660E+02
 -10.176  0.1253E+02  0.1673E+02
 -10.166  0.1223E+02  0.1685E+02
 -10.156  0.1193E+02  0.1697E+02
 -10.146  0.1162E+02  0.1709E+02
 -10.136  0.1132E+02  0.1720E+02
 -10.126  0.1102E+02  0.1731E+02
 -10.116  0.1072E+02  0.1742E+02
 -10.106  0.1042E+02  0.1752E+02
 -10.096  0.1012E+02  0.1762E+02
 -10.086  0.9826E+01  0.1772E+02
 -10.076  0.9533E+01  0.1782E+02
 -10.066  0.9244E+01  0.1791E+02
 -10.056  0.8958E+01  0.1800E+02
 -10.046  0.8675E+01  0.1808E+02
 -10.036  0.8396E+01  0.1817E+02
 -10.026  0.8120E+01  0.1825E+02
 -10.016  0.7849E+01  0.1833E+02
 -10.006  0.7582E+01  0.1840E+02
  -9.996  0.7319E+01  0.1848E+02
  -9.986  0.7061E+01  0.1855E+02
  -9.976  0.6808E+01  0.1862E+02
  -9.966  0.6560E+01  0.1868E+02
  -9.956  0.6317E+01  0.1874E+02
  -9.946  0.6079E+01  0.1880E+02
  -9.936  0.5846E+01  0.1886E+02
  -9.926  0.5619E+01  0.1892E+02
  -9.916  0.5397E+01  0.1897E+02
  -9.906  0.5181E+01  0.1903E+02
  -9.896  0.4970E+01  0.1907E+02
  -9.886  0.4764E+01  0.1912E+02
  -9.876  0.4565E+01  0.1917E+02
  -9.866  0.4371E+01  0.1921E+02
  -9.856  0.4182E+01  0.1925E+02
  -9.846  0.3999E+01  0.1929E+02
  -9.836  0.3822E+01  0.1933E+02
  -9.826  0.3650E+01  0.1937E+02
  -9.816  0.3484E+01  0.1940E+02
  -9.806  0.3323E+01  0.1944E+02
  -9.796  0.3168E+01  0.1947E+02
  -9.786  0.3018E+01  0.1950E+02
  -9.776  0.2873E+01  0.1953E+02
  -9.766  0.2733E+01  0.1955E+02
  -9.756  0.2599E+01  0.1958E+02
  -9.746  0.2470E+01  0.1961E+02
  -9.736  0.2345E+01  0.1963E+02
  -9.726  0.2226E+01  0.1965E+02
  -9.716  0.2111E+01  0.1967E+02
  -9.706  0.2001E+01  0.1969E+02
  -9.696  0.1895E+01  0.1971E+02
  -9.686  0.1794E+01  0.1973E+02
  -9.676  0.1697E+01  0.1975E+02
  -9.666  0.1604E+01  0.1976E+02
  -9.656  0.1516E+01  0.1978E+02
  -9.646  0.1431E+01  0.1979E+02
  -9.636  0.1351E+01  0.1980E+02
  -9.626  0.1274E+01  0.1982E+02
  -9.616  0.1200E+01  0.1983E+02
  -9.606  0.1131E+01  0.1984E+02
  -9.596  0.1064E+01  0.1985E+02
  -9.586  0.1001E+01  0.1986E+02
  -9.576  0.9409E+00  0.1987E+02
  -9.566  0.8839E+00  0.1988E+02
  -9.556  0.8298E+00  0.1989E+02
  -9.546  0.7786E+00  0.1990E+02
  -9.536  0.7300E+00  0.1990E+02
  -9.526  0.6840E+00  0.1991E+02
  -9.516  0.6406E+00  0.1992E+02
  -9.506  0.5995E+00  0.1992E+02
  -9.496  0.5607E+00  0.1993E+02
  -9.486  0.5240E+00  0.1993E+02
  -9.476  0.4895E+00  0.1994E+02
  -9.466  0.4569E+00  0.1994E+02
  -9.456  0.4262E+00  0.1995E+02
  -9.446  0.3974E+00  0.1995E+02
  -9.436  0.3702E+00  0.1995E+02
  -9.426  0.3447E+00  0.1996E+02
  -9.416  0.3207E+00  0.1996E+02
  -9.406  0.2983E+00  0.1996E+02
  -9.396  0.2772E+00  0.1997E+02
  -9.386  0.2574E+00  0.1997E+02
  -9.376  0.2389E+00  0.1997E+02
  -9.366  0.2216E+00  0.1997E+02
  -9.356  0.2054E+00  0.1998E+02
  -9.346  0.1903E+00  0.1998E+02
  -9.336  0.1762E+00  0.1998E+02
  -9.326  0.1630E+00  0.1998E+02
  -9.316  0.1507E+00  0.1998E+02
  -9.306  0.1392E+00  0.1998E+02
  -9.296  0.1286E+00  0.1999E+02
  -9.286  0.1186E+00  0.1999E+02
  -9.276  0.1094E+00  0.1999E+02
  -9.266  0.1008E+00  0.1999E+02
  -9.256  0.9287E-01  0.1999E+02
  -9.246  0.8548E-01  0.1999E+02
  -9.236  0.7863E-01  0.1999E+02
  -9.226  0.7228E-01  0.1999E+02
  -9.216  0.6640E-01  0.1999E+02
  -9.206  0.6096E-01  0.1999E+02
  -9.196  0.5593E-01  0.1999E+02
  -9.186  0.5128E-01  0.1999E+02
  -9.176  0.4699E-01  0.2000E+02
  -9.166  0.4303E-01  0.2000E+02
  -9.156  0.3938E-01  0.2000E+02
  -9.146  0.3602E-01  0.2000E+02
  -9.136  0.3292E-01  0.2000E+02
  -9.126  0.3007E-01  0.2000E+02
  -9.116  0.2745E-01  0.2000E+02
  -9.106  0.2504E-01  0.2000E+02
  -9.096  0.2282E-01  0.2000E+02
  -9.086  0.2079E-01  0.2000E+02
  -9.076  0.1893E-01  0.2000E+02
  -9.066  0.1723E-01  0.2000E+02
  -9.056  0.1566E-01  0.2000E+02
  -9.046  0.1423E-01  0.2000E+02
  -9.036  0.1293E-01  0.2000E+02
  -9.026  0.1173E-01  0.2000E+02
  -9.016  0.1064E-01  0.2000E+02
  -9.006  0.9643E-02  0.2000E+02
  -8.996  0.8734E-02  0.2000E+02
  -8.986  0.7907E-02  0.2000E+02
  -8.976  0.7153E-02  0.2000E+02
  -8.966  0.6466E-02  0.2000E+02
  -8.956  0.5842E-02  0.2000E+02
  -8.946  0.5275E-02  0.2000E+02
  -8.936  0.4759E-02  0.2000E+02
  -8.926  0.4292E-02  0.2000E+02
  -8.916  0.3867E-02  0.2000E+02
  -8.906  0.3483E-02  0.2000E+02
  -8.896  0.3134E-02  0.2000E+02
  -8.886  0.2819E-02  0.2000E+02
  -8.876  0.2534E-02  0.2000E+02
  -8.866  0.2276E-02  0.2000E+02
  -8.856  0.2043E-02  0.2000E+02
  -8.846  0.1833E-02  0.2000E+02
  -8.836  0.1643E-02  0.2000E+02
  -8.826  0.1472E-02  0.2000E+02
  -8.816  0.1318E-02  0.2000E+02
  -8.806  0.1179E-02  0.2000E+02
  -8.796  0.1055E-02  0.2000E+02
  -8.786  0.9424E-03  0.2000E+02
  -8.776  0.8416E-03  0.2000E+02
  -8.766  0.7511E-03  0.2000E+02
  -8.756  0.6699E-03  0.2000E+02
  -8.746  0.5971E-03  0.2000E+02
  -8.736  0.5319E-03  0.2000E+02
  -8.726  0.4735E-03  0.2000E+02
  -8.716  0.4212E-03  0.2000E+02
  -8.706  0.3744E-03  0.2000E+02
  -8.696  0.3327E-03  0.2000E+02
  -8.686  0.2954E-03  0.2000E+02
  -8.676  0.2621E-03  0.2000E+02
  -8.666  0.2324E-03  0.2000E+02
  -8.656  0.2059E-03  0.2000E+02
  -8.646  0.1824E-03  0.2000E+02
  -8.636  0.1614E-03  0.2000E+02
  -8.626  0.1427E-03  0.2000E+02
  -8.616  0.1262E-03  0.2000E+02
  -8.606  0.1114E-03  0.2000E+02
  -8.596  0.9837E-04  0.2000E+02
  -8.586  0.8678E-04  0.2000E+02
  -8.576  0.7650E-04  0.2000E+02
  -8.566  0.6740E-04  0.2000E+02
  -8.556  0.5934E-04  0.2000E+02
  -8.546  0.5221E-04  0.2000E+02
  -8.536  0.4591E-04  0.2000E+02
  -8.526  0.4034E-04  0.2000E+02
  -8.516  0.3542E-04  0.2000E+02
  -8.506  0.3109E-04  0.2000E+02
  -8.496  0.2726E-04  0.2000E+02
  -8.486  0.2389E-04  0.2000E+02
  -8.476  0.2093E-04  0.2000E+02
  -8.466  0.1832E-04  0.2000E+02
  -8.456  0.1602E-04  0.2000E+02
  -8.446  0.1401E-04  0.2000E+02
  -8.436  0.1224E-04  0.2000E+02
  -8.426  0.1068E-04  0.2000E+02
  -8.416  0.9321E-05  0.2000E+02
  -8.406  0.8127E-05  0.2000E+02
  -8.396  0.7082E-05  0.2000E+02
  -8.386  0.6167E-05  0.2000E+02
  -8.376  0.5366E-05  0.2000E+02
  -8.366  0.4667E-05  0.2000E+02
  -8.356  0.4056E-05  0.2000E+02
  -8.346  0.3522E-05  0.2000E+02
  -8.336  0.3057E-05  0.2000E+02
  -8.326  0.2652E-05  0.2000E+02
  -8.316  0.2299E-05  0.2000E+02
  -8.306  0.1991E-05  0.2000E+02
  -8.296  0.1724E-05  0.2000E+02
  -8.286  0.1491E-05  0.2000E+02
  -8.276  0.1289E-05  0.2000E+02
  -8.266  0.1114E-05  0.2000E+02
  -8.256  0.9619E-06  0.2000E+02
  -8.246  0.8300E-06  0.2000E+02
  -8.236  0.7157E-06  0.2000E+02
  -8.226  0.6168E-06  0.2000E+02
  -8.216  0.5312E-06  0.2000E+02
  -8.206  0.4572E-06  0.2000E+02
  -8.196  0.3932E-06  0.2000E+02
  -8.186  0.3380E-06  0.2000E+02
  -8.176  0.2903E-06  0.2000E+02
  -8.166  0.2492E-06  0.2000E+02
  -8.156  0.2138E-06  0.2000E+02
  -8.146  0.1833E-06  0.2000E+02
  -8.136  0.1570E-06  0.2000E+02
  -8.126  0.1344E-06  0.2000E+02
  -8.116  0.1150E-06  0.2000E+02
  -8.106  0.9834E-07  0.2000E+02
  -8.096  0.8403E-07  0.2000E+02
  -8.086  0.7176E-07  0.2000E+02
  -8.076  0.6124E-07  0.2000E+02
  -8.066  0.5222E-07  0.2000E+02
  -8.056  0.4451E-07  0.2000E+02
  -8.046  0.3791E-07  0.2000E+02
  -8.036  0.3227E-07  0.2000E+02
  -8.026  0.2745E-07  0.2000E+02
  -8.016  0.2333E-07  0.2000E+02
  -8.006  0.1982E-07  0.2000E+02
  -7.996  0.1683E-07  0.2000E+02
  -7.986  0.1427E-07  0.2000E+02
  -7.976  0.1210E-07  0.2000E+02
  -7.966  0.1025E-07  0.2000E+02
  -7.956  0.8682E-08  0.2000E+02
  -7.946  0.7347E-08  0.2000E+02
  -7.936  0.6212E-08  0.2000E+02
  -7.926  0.5250E-08  0.2000E+02
  -7.916  0.4434E-08  0.2000E+02
  -7.906  0.3742E-08  0.2000E+02
  -7.896  0.3156E-08  0.2000E+02
  -7.886  0.2660E-08  0.2000E+02
  -7.876  0.2240E-08  0.2000E+02
  -7.866  0.1886E-08  0.2000E+02
  -7.856  0.1586E-08  0.2000E+02
  -7.846  0.1334E-08  0.2000E+02
  -7.836  0.1120E-08  0.2000E+02
  -7.826  0.9407E-09  0.2000E+02
  -7.816  0.7892E-09  0.2000E+02
  -7.806  0.6617E-09  0.2000E+02
  -7.796  0.5545E-09  0.2000E+02
  -7.786  0.4643E-09  0.2000E+02
  -7.776  0.3885E-09  0.2000E+02
  -7.766  0.3249E-09  0.2000E+02
  -7.756  0.2715E-09  0.2000E+02
  -7.746  0.2268E-09  0.2000E+02
  -7.736  0.1893E-09  0.2000E+02
  -7.726  0.1579E-09  0.2000E+02
  -7.716  0.1316E-09  0.2000E+02
  -7.706  0.1096E-09  0.2000E+02
  -7.696  0.9125E-10  0.2000E+02
  -7.686  0.7591E-10  0.2000E+02
  -7.676  0.6311E-10  0.2000E+02
  -7.666  0.5243E-10  0.2000E+02
  -7.656  0.4353E-10  0.2000E+02
  -7.646  0.3612E-10  0.2000E+02
  -7.636  0.2995E-10  0.2000E+02
  -7.626  0.2482E-10  0.2000E+02
  -7.616  0.2055E-10  0.2000E+02
  -7.606  0.1701E-10  0.2000E+02
  -7.596  0.1406E-10  0.2000E+02
  -7.586  0.1162E-10  0.2000E+02
  -7.576  0.9600E-11  0.2000E+02
  -7.566  0.7923E-11  0.2000E+02
  -7.556  0.6536E-11  0.2000E+02
  -7.546  0.5387E-11  0.2000E+02
  -7.536  0.4438E-11  0.2000E+02
  -7.526  0.3653E-11  0.2000E+02
  -7.516  0.3005E-11  0.2000E+02
  -7.506  0.2471E-11  0.2000E+02
  -7.496  0.2030E-11  0.2000E+02
  -7.486  0.1667E-11  0.2000E+02
  -7.476  0.1368E-11  0.2000E+02
  -7.466  0.1121E-11  0.2000E+02
  -7.456  0.9189E-12  0.2000E+02
  -7.446  0.7525E-12  0.2000E+02
  -7.436  0.6158E-12  0.2000E+02
  -7.426  0.5036E-12  0.2000E+02
  -7.416  0.4116E-12  0.2000E+02
  -7.406  0.3362E-12  0.2000E+02
  -7.396  0.2744E-12  0.2000E+02
  -7.386  0.2238E-12  0.2000E+02
  -7.376  0.1824E-12  0.2000E+02
  -7.366  0.1486E-12  0.2000E+02
  -7.356  0.1210E-12  0.2000E+02
  -7.346  0.9843E-13  0.2000E+02
  -7.336  0.8002E-13  0.2000E+02
  -7.326  0.6501E-13  0.2000E+02
  -7.316  0.5279E-13  0.2000E+02
  -7.306  0.4283E-13  0.2000E+02
  -7.296  0.3473E-13  0.2000E+02
  -7.286  0.2814E-13  0.2000E+02
  -7.276  0.2279E-13  0.2000E+02
  -7.266  0.1844E-13  0.2000E+02
  -7.256  0.1492E-13  0.2000E+02
  -7.246  0.1205E-13  0.2000E+02
  -7.236  0.9736E-14  0.2000E+02
  -7.226  0.7858E-14  0.2000E+02
  -7.216  0.6339E-14  0.2000E+02
  -7.206  0.5109E-14  0.2000E+02
  -7.196  0.4116E-14  0.2000E+02
  -7.186  0.3313E-14  0.2000E+02
  -7.176  0.2666E-14  0.2000E+02
  -7.166  0.2143E-14  0.2000E+02
  -7.156  0.1722E-14  0.2000E+02
  -7.146  0.1382E-14  0.2000E+02
  -7.136  0.1109E-14  0.2000E+02
  -7.126  0.8893E-15  0.2000E+02
  -7.116  0.7126E-15  0.2000E+02
  -7.106  0.5707E-15  0.2000E+02
  -7.096  0.4567E-15  0.2000E+02
  -7.086  0.3652E-15  0.2000E+02
  -7.076  0.2919E-15  0.2000E+02
  -7.066  0.2331E-15  0.2000E+02
  -7.056  0.1861E-15  0.2000E+02
  -7.046  0.1484E-15  0.2000E+02
  -7.036  0.1183E-15  0.2000E+02
  -7.026  0.9423E-16  0.2000E+02
  -7.016  0.7501E-16  0.2000E+02
  -7.006  0.5967E-16  0.2000E+02
  -6.996  0.4744E-16  0.2000E+02
  -6.986  0.3769E-16  0.2000E+02
  -6.976  0.2992E-16  0.2000E+02
  -6.966  0.2374E-16  0.2000E+02
  -6.956  0.1882E-16  0.2000E+02
  -6.946  0.1492E-16  0.2000E+02
  -6.936  0.1181E-16  0.2000E+02
  -6.926  0.9346E-17  0.2000E+02
  -6.916  0.7391E-17  0.2000E+02
  -6.906  0.5841E-17  0.2000E+02
  -6.896  0.4613E-17  0.2000E+02
  -6.886  0.3641E-17  0.2000E+02
  -6.876  0.2872E-17  0.2000E+02
  -6.866  0.2263E-17  0.2000E+02
  -6.856  0.1783E-17  0.2000E+02
  -6.846  0.1403E-17  0.2000E+02
  -6.836  0.1104E-17  0.2000E+02
  -6.826  0.8678E-18  0.2000E+02
  -6.816  0.6818E-18  0.2000E+02
  -6.806  0.5352E-18  0.2000E+02
  -6.796  0.4199E-18  0.2000E+02
  -6.786  0.3292E-18  0.2000E+02
  -6.776  0.2580E-18  0.2000E+02
  -6.766  0.2020E-18  0.2000E+02
  -6.756  0.1581E-18  0.2000E+02
  -6.746  0.1236E-18  0.2000E+02
  -6.736  0.9659E-19  0.2000E+02
  -6.726  0.7543E-19  0.2000E+02
  -6.716  0.5887E-19  0.2000E+02
  -6.706  0.4591E-19  0.2000E+02
  -6.696  0.3578E-19  0.2000E+02
  -6.686  0.2787E-19  0.2000E+02
  -6.676  0.2169E-19  0.2000E+02
  -6.666  0.1687E-19  0.2000E+02
  -6.656  0.1312E-19  0.2000E+02
  -6.646  0.1019E-19  0.2000E+02
  -6.636  0.7910E-20  0.2000E+02
  -6.626  0.6136E-20  0.2000E+02
  -6.616  0.4757E-20  0.2000E+02
  -6.606  0.3686E-20  0.2000E+02
  -6.596  0.2854E-20  0.2000E+02
  -6.586  0.2208E-20  0.2000E+02
  -6.576  0.1707E-20  0.2000E+02
  -6.566  0.1319E-20  0.2000E+02
  -6.556  0.1019E-20  0.2000E+02
  -6.546  0.7862E-21  0.2000E+02
  -6.536  0.6063E-21  0.2000E+02
  -6.526  0.4672E-21  0.2000E+02
  -6.516  0.3599E-21  0.2000E+02
  -6.506  0.2770E-21  0.2000E+02
  -6.496  0.2130E-21  0.2000E+02
  -6.486  0.1637E-21  0.2000E+02
  -6.476  0.1258E-21  0.2000E+02
  -6.466  0.9654E-22  0.2000E+02
  -6.456  0.7406E-22  0.2000E+02
  -6.446  0.5677E-22  0.2000E+02
  -6.436  0.4349E-22  0.2000E+02
  -6.426  0.3330E-22  0.2000E+02
  -6.416  0.2548E-22  0.2000E+02
  -6.406  0.1948E-22  0.2000E+02
  -6.396  0.1488E-22  0.2000E+02
  -6.386  0.1136E-22  0.2000E+02
  -6.376  0.8671E-23  0.2000E+02
  -6.366  0.6612E-23  0.2000E+02
  -6.356  0.5038E-23  0.2000E+02
  -6.346  0.3837E-23  0.2000E+02
  -6.336  0.2920E-23  0.2000E+02
  -6.326  0.2221E-23  0.2000E+02
  -6.316  0.1688E-23  0.2000E+02
  -6.306  0.1282E-23  0.2000E+02
  -6.296  0.9730E-24  0.2000E+02
  -6.286  0.7380E-24  0.2000E+02
  -6.276  0.5594E-24  0.2000E+02
  -6.266  0.4238E-24  0.2000E+02
  -6.256  0.3208E-24  0.2000E+02
  -6.246  0.2427E-24  0.2000E+02
  -6.236  0.1835E-24  0.2000E+02
  -6.226  0.1386E-24  0.2000E+02
  -6.216  0.1046E-24  0.2000E+02
  -6.206  0.7895E-25  0.2000E+02
  -6.196  0.5953E-25  0.2000E+02
  -6.186  0.4486E-25  0.2000E+02
  -6.176  0.3378E-25  0.2000E+02
  -6.166  0.2542E-25  0.2000E+02
  -6.156  0.1911E-25  0.2000E+02
  -6.146  0.1436E-25  0.2000E+02
  -6.136  0.1079E-25  0.2000E+02
  -6.126  0.8095E-26  0.2000E+02
  -6.116  0.6072E-26  0.2000E+02
  -6.106  0.4551E-26  0.2000E+02
  -6.096  0.3408E-26  0.2000E+02
  -6.086  0.2551E-26  0.2000E+02
  -6.076  0.1908E-26  0.2000E+02
  -6.066  0.1426E-26  0.2000E+02
  -6.056  0.1066E-26  0.2000E+02
  -6.046  0.7955E-27  0.2000E+02
  -6.036  0.5935E-27  0.2000E+02
  -6.026  0.4424E-27  0.2000E+02
  -6.016  0.3296E-27  0.2000E+02
  -6.006  0.2454E-27  0.2000E+02
  -5.996  0.1826E-27  0.2000E+02
  -5.986  0.1358E-27  0.2000E+02
  -5.976  0.1009E-27  0.2000E+02
  -5.966  0.7492E-28  0.2000E+02
  -5.956  0.5559E-28  0.2000E+02
  -5.946  0.4123E-28  0.2000E+02
  -5.936  0.3055E-28  0.2000E+02
  -5.926  0.2263E-28  0.2000E+02
  -5.916  0.1675E-28  0.2000E+02
  -5.906  0.1239E-28  0.2000E+02
  -5.896  0.9154E-29  0.2000E+02
  -5.886  0.6761E-29  0.2000E+02
  -5.876  0.4991E-29  0.2000E+02
  -5.866  0.3681E-29  0.2000E+02
  -5.856  0.2714E-29  0.2000E+02
  -5.846  0.1999E-29  0.2000E+02
  -5.836  0.1472E-29  0.2000E+02
  -5.826  0.1083E-29  0.2000E+02
  -5.816  0.7960E-30  0.2000E+02
  -5.806  0.5848E-30  0.2000E+02
  -5.796  0.4294E-30  0.2000E+02
  -5.786  0.3150E-30  0.2000E+02
  -5.776  0.2310E-30  0.2000E+02
  -5.766  0.1693E-30  0.2000E+02
  -5.756  0.1239E-30  0.2000E+02
  -5.746  0.9070E-31  0.2000E+02
  -5.736  0.6633E-31  0.2000E+02
  -5.726  0.4847E-31  0.2000E+02
  -5.716  0.3540E-31  0.2000E+02
  -5.706  0.2584E-31  0.2000E+02
  -5.696  0.1884E-31  0.2000E+02
  -5.686  0.1373E-31  0.2000E+02
  -5.676  0.1000E-31  0.2000E+02
  -5.666  0.7281E-32  0.2000E+02
  -5.656  0.5296E-32  0.2000E+02
  -5.646  0.3850E-32  0.2000E+02
  -5.636  0.2797E-32  0.2000E+02
  -5.626  0.2030E-32  0.2000E+02
  -5.616  0.1473E-32  0.2000E+02
  -5.606  0.1068E-32  0.2000E+02
  -5.596  0.7736E-33  0.2000E+02
  -5.586  0.5601E-33  0.2000E+02
  -5.576  0.4053E-33  0.2000E+02
  -5.566  0.2930E-33  0.2000E+02
  -5.556  0.2117E-33  0.2000E+02
  -5.546  0.1529E-33  0.2000E+02
  -5.536  0.1103E-33  0.2000E+02
  -5.526  0.7956E-34  0.2000E+02
  -5.516  0.5734E-34  0.2000E+02
  -5.506  0.4129E-34  0.2000E+02
  -5.496  0.2972E-34  0.2000E+02
  -5.486  0.2137E-34  0.2000E+02
  -5.476  0.1536E-34  0.2000E+02
  -5.466  0.1103E-34  0.2000E+02
  -5.456  0.7920E-35  0.2000E+02
  -5.446  0.5681E-35  0.2000E+02
  -5.436  0.4072E-35  0.2000E+02
  -5.426  0.2917E-35  0.2000E+02
  -5.416  0.2088E-35  0.2000E+02
  -5.406  0.1494E-35  0.2000E+02
  -5.396  0.1068E-35  0.2000E+02
  -5.386  0.7635E-36  0.2000E+02
  -5.376  0.5455E-36  0.2000E+02
  -5.366  0.3898E-36  0.2000E+02
  -5.356  0.2787E-36  0.2000E+02
  -5.346  0.1997E-36  0.2000E+02
  -5.336  0.1437E-36  0.2000E+02
  -5.326  0.1044E-36  0.2000E+02
  -5.316  0.7720E-37  0.2000E+02
  -5.306  0.5902E-37  0.2000E+02
  -5.296  0.4774E-37  0.2000E+02
  -5.286  0.4200E-37  0.2000E+02
  -5.276  0.4113E-37  0.2000E+02
  -5.266  0.4496E-37  0.2000E+02
  -5.256  0.5387E-37  0.2000E+02
  -5.246  0.6881E-37  0.2000E+02
  -5.236  0.9136E-37  0.2000E+02
  -5.226  0.1239E-36  0.2000E+02
  -5.216  0.1701E-36  0.2000E+02
  -5.206  0.2346E-36  0.2000E+02
  -5.196  0.3245E-36  0.2000E+02
  -5.186  0.4493E-36  0.2000E+02
  -5.176  0.6222E-36  0.2000E+02
  -5.166  0.8615E-36  0.2000E+02
  -5.156  0.1192E-35  0.2000E+02
  -5.146  0.1649E-35  0.2000E+02
  -5.136  0.2279E-35  0.2000E+02
  -5.126  0.3148E-35  0.2000E+02
  -5.116  0.4345E-35  0.2000E+02
  -5.106  0.5994E-35  0.2000E+02
  -5.096  0.8262E-35  0.2000E+02
  -5.086  0.1138E-34  0.2000E+02
  -5.076  0.1567E-34  0.2000E+02
  -5.066  0.2156E-34  0.2000E+02
  -5.056  0.2964E-34  0.2000E+02
  -5.046  0.4072E-34  0.2000E+02
  -5.036  0.5590E-34  0.2000E+02
  -5.026  0.7670E-34  0.2000E+02
  -5.016  0.1052E-33  0.2000E+02
  -5.006  0.1441E-33  0.2000E+02
  -4.996  0.1973E-33  0.2000E+02
  -4.986  0.2700E-33  0.2000E+02
  -4.976  0.3692E-33  0.2000E+02
  -4.966  0.5044E-33  0.2000E+02
  -4.956  0.6889E-33  0.2000E+02
  -4.946  0.9400E-33  0.2000E+02
  -4.936  0.1282E-32  0.2000E+02
  -4.926  0.1747E-32  0.2000E+02
  -4.916  0.2379E-32  0.2000E+02
  -4.906  0.3238E-32  0.2000E+02
  -4.896  0.4404E-32  0.2000E+02
  -4.886  0.5986E-32  0.2000E+02
  -4.876  0.8130E-32  0.2000E+02
  -4.866  0.1103E-31  0.2000E+02
  -4.856  0.1497E-31  0.2000E+02
  -4.846  0.2029E-31  0.2000E+02
  -4.836  0.2748E-31  0.2000E+02
  -4.826  0.3720E-31  0.2000E+02
  -4.816  0.5032E-31  0.2000E+02
  -4.806  0.6802E-31  0.2000E+02
  -4.796  0.9189E-31  0.2000E+02
  -4.786  0.1240E-30  0.2000E+02
  -4.776  0.1673E-30  0.2000E+02
  -4.766  0.2256E-30  0.2000E+02
  -4.756  0.3040E-30  0.2000E+02
  -4.746  0.4092E-30  0.2000E+02
  -4.736  0.5506E-30  0.2000E+02
  -4.726  0.7403E-30  0.2000E+02
  -4.716  0.9947E-30  0.2000E+02
  -4.706  0.1336E-29  0.2000E+02
  -4.696  0.1792E-29  0.2000E+02
  -4.686  0.2403E-29  0.2000E+02
  -4.676  0.3220E-29  0.2000E+02
  -4.666  0.4312E-29  0.2000E+02
  -4.656  0.5770E-29  0.2000E+02
  -4.646  0.7717E-29  0.2000E+02
  -4.636  0.1031E-28  0.2000E+02
  -4.626  0.1377E-28  0.2000E+02
  -4.616  0.1838E-28  0.2000E+02
  -4.606  0.2451E-28  0.2000E+02
  -4.596  0.3267E-28  0.2000E+02
  -4.586  0.4351E-28  0.2000E+02
  -4.576  0.5792E-28  0.2000E+02
  -4.566  0.7704E-28  0.2000E+02
  -4.556  0.1024E-27  0.2000E+02
  -4.546  0.1360E-27  0.2000E+02
  -4.536  0.1805E-27  0.2000E+02
  -4.526  0.2395E-27  0.2000E+02
  -4.516  0.3175E-27  0.2000E+02
  -4.506  0.4206E-27  0.2000E+02
  -4.496  0.5568E-27  0.2000E+02
  -4.486  0.7366E-27  0.2000E+02
  -4.476  0.9738E-27  0.2000E+02
  -4.466  0.1287E-26  0.2000E+02
  -4.456  0.1699E-26  0.2000E+02
  -4.446  0.2241E-26  0.2000E+02
  -4.436  0.2955E-26  0.2000E+02
  -4.426  0.3893E-26  0.2000E+02
  -4.416  0.5126E-26  0.2000E+02
  -4.406  0.6745E-26  0.2000E+02
  -4.396  0.8869E-26  0.2000E+02
  -4.386  0.1165E-25  0.2000E+02
  -4.376  0.1530E-25  0.2000E+02
  -4.366  0.2008E-25  0.2000E+02
  -4.356  0.2634E-25  0.2000E+02
  -4.346  0.3452E-25  0.2000E+02
  -4.336  0.4520E-25  0.2000E+02
  -4.326  0.5916E-25  0.2000E+02
  -4.316  0.7737E-25  0.2000E+02
  -4.306  0.1011E-24  0.2000E+02
  -4.296  0.1321E-24  0.2000E+02
  -4.286  0.1724E-24  0.2000E+02
  -4.276  0.2249E-24  0.2000E+02
  -4.266  0.2931E-24  0.2000E+02
  -4.256  0.3818E-24  0.2000E+02
  -4.246  0.4970E-24  0.2000E+02
  -4.236  0.6465E-24  0.2000E+02
  -4.226  0.8404E-24  0.2000E+02
  -4.216  0.1092E-23  0.2000E+02
  -4.206  0.1417E-23  0.2000E+02
  -4.196  0.1839E-23  0.2000E+02
  -4.186  0.2384E-23  0.2000E+02
  -4.176  0.3088E-23  0.2000E+02
  -4.166  0.3998E-23  0.2000E+02
  -4.156  0.5173E-23  0.2000E+02
  -4.146  0.6689E-23  0.2000E+02
  -4.136  0.8643E-23  0.2000E+02
  -4.126  0.1116E-22  0.2000E+02
  -4.116  0.1440E-22  0.2000E+02
  -4.106  0.1857E-22  0.2000E+02
  -4.096  0.2393E-22  0.2000E+02
  -4.086  0.3081E-22  0.2000E+02
  -4.076  0.3965E-22  0.2000E+02
  -4.066  0.5099E-22  0.2000E+02
  -4.056  0.6553E-22  0.2000E+02
  -4.046  0.8416E-22  0.2000E+02
  -4.036  0.1080E-21  0.2000E+02
  -4.026  0.1385E-21  0.2000E+02
  -4.016  0.1776E-21  0.2000E+02
  -4.006  0.2274E-21  0.2000E+02
  -3.996  0.2911E-21  0.2000E+02
  -3.986  0.3723E-21  0.2000E+02
  -3.976  0.4759E-21  0.2000E+02
  -3.966  0.6079E-21  0.2000E+02
  -3.956  0.7760E-21  0.2000E+02
  -3.946  0.9900E-21  0.2000E+02
  -3.936  0.1262E-20  0.2000E+02
  -3.926  0.1608E-20  0.2000E+02
  -3.916  0.2047E-20  0.2000E+02
  -3.906  0.2604E-20  0.2000E+02
  -3.896  0.3311E-20  0.2000E+02
  -3.886  0.4206E-20  0.2000E+02
  -3.876  0.5341E-20  0.2000E+02
  -3.866  0.6776E-20  0.2000E+02
  -3.856  0.8592E-20  0.2000E+02
  -3.846  0.1089E-19  0.2000E+02
  -3.836  0.1379E-19  0.2000E+02
  -3.826  0.1744E-19  0.2000E+02
  -3.816  0.2206E-19  0.2000E+02
  -3.806  0.2788E-19  0.2000E+02
  -3.796  0.3520E-19  0.2000E+02
  -3.786  0.4443E-19  0.2000E+02
  -3.776  0.5603E-19  0.2000E+02
  -3.766  0.7061E-19  0.2000E+02
  -3.756  0.8893E-19  0.2000E+02
  -3.746  0.1119E-18  0.2000E+02
  -3.736  0.1408E-18  0.2000E+02
  -3.726  0.1770E-18  0.2000E+02
  -3.716  0.2223E-18  0.2000E+02
  -3.706  0.2790E-18  0.2000E+02
  -3.696  0.3500E-18  0.2000E+02
  -3.686  0.4387E-18  0.2000E+02
  -3.676  0.5496E-18  0.2000E+02
  -3.666  0.6880E-18  0.2000E+02
  -3.656  0.8607E-18  0.2000E+02
  -3.646  0.1076E-17  0.2000E+02
  -3.636  0.1344E-17  0.2000E+02
  -3.626  0.1678E-17  0.2000E+02
  -3.616  0.2094E-17  0.2000E+02
  -3.606  0.2611E-17  0.2000E+02
  -3.596  0.3253E-17  0.2000E+02
  -3.586  0.4051E-17  0.2000E+02
  -3.576  0.5040E-17  0.2000E+02
  -3.566  0.6268E-17  0.2000E+02
  -3.556  0.7788E-17  0.2000E+02
  -3.546  0.9672E-17  0.2000E+02
  -3.536  0.1200E-16  0.2000E+02
  -3.526  0.1488E-16  0.2000E+02
  -3.516  0.1845E-16  0.2000E+02
  -3.506  0.2285E-16  0.2000E+02
  -3.496  0.2828E-16  0.2000E+02
  -3.486  0.3497E-16  0.2000E+02
  -3.476  0.4322E-16  0.2000E+02
  -3.466  0.5339E-16  0.2000E+02
  -3.456  0.6590E-16  0.2000E+02
  -3.446  0.8129E-16  0.2000E+02
  -3.436  0.1002E-15  0.2000E+02
  -3.426  0.1234E-15  0.2000E+02
  -3.416  0.1520E-15  0.2000E+02
  -3.406  0.1869E-15  0.2000E+02
  -3.396  0.2298E-15  0.2000E+02
  -3.386  0.2823E-15  0.2000E+02
  -3.376  0.3466E-15  0.2000E+02
  -3.366  0.4253E-15  0.2000E+02
  -3.356  0.5215E-15  0.2000E+02
  -3.346  0.6389E-15  0.2000E+02
  -3.336  0.7823E-15  0.2000E+02
  -3.326  0.9573E-15  0.2000E+02
  -3.316  0.1171E-14  0.2000E+02
  -3.306  0.1430E-14  0.2000E+02
  -3.296  0.1747E-14  0.2000E+02
  -3.286  0.2132E-14  0.2000E+02
  -3.276  0.2600E-14  0.2000E+02
  -3.266  0.3168E-14  0.2000E+02
  -3.256  0.3859E-14  0.2000E+02
  -3.246  0.4697E-14  0.2000E+02
  -3.236  0.5712E-14  0.2000E+02
  -3.226  0.6943E-14  0.2000E+02
  -3.216  0.8434E-14  0.2000E+02
  -3.206  0.1024E-13  0.2000E+02
  -3.196  0.1242E-13  0.2000E+02
  -3.186  0.1505E-13  0.2000E+02
  -3.176  0.1824E-13  0.2000E+02
  -3.166  0.2208E-13  0.2000E+02
  -3.156  0.2671E-13  0.2000E+02
  -3.146  0.3229E-13  0.2000E+02
  -3.136  0.3901E-13  0.2000E+02
  -3.126  0.4710E-13  0.2000E+02
  -3.116  0.5684E-13  0.2000E+02
  -3.106  0.6853E-13  0.2000E+02
  -3.096  0.8258E-13  0.2000E+02
  -3.086  0.9944E-13  0.2000E+02
  -3.076  0.1197E-12  0.2000E+02
  -3.066  0.1439E-12  0.2000E+02
  -3.056  0.1729E-12  0.2000E+02
  -3.046  0.2077E-12  0.2000E+02
  -3.036  0.2493E-12  0.2000E+02
  -3.026  0.2989E-12  0.2000E+02
  -3.016  0.3583E-12  0.2000E+02
  -3.006  0.4292E-12  0.2000E+02
  -2.996  0.5137E-12  0.2000E+02
  -2.986  0.6145E-12  0.2000E+02
  -2.976  0.7345E-12  0.2000E+02
  -2.966  0.8775E-12  0.2000E+02
  -2.956  0.1048E-11  0.2000E+02
  -2.946  0.1250E-11  0.2000E+02
  -2.936  0.1490E-11  0.2000E+02
  -2.926  0.1775E-11  0.2000E+02
  -2.916  0.2113E-11  0.2000E+02
  -2.906  0.2515E-11  0.2000E+02
  -2.896  0.2990E-11  0.2000E+02
  -2.886  0.3553E-11  0.2000E+02
  -2.876  0.4219E-11  0.2000E+02
  -2.866  0.5007E-11  0.2000E+02
  -2.856  0.5937E-11  0.2000E+02
  -2.846  0.7036E-11  0.2000E+02
  -2.836  0.8333E-11  0.2000E+02
  -2.826  0.9863E-11  0.2000E+02
  -2.816  0.1167E-10  0.2000E+02
  -2.806  0.1379E-10  0.2000E+02
  -2.796  0.1629E-10  0.2000E+02
  -2.786  0.1923E-10  0.2000E+02
  -2.776  0.2268E-10  0.2000E+02
  -2.766  0.2674E-10  0.2000E+02
  -2.756  0.3150E-10  0.2000E+02
  -2.746  0.3708E-10  0.2000E+02
  -2.736  0.4363E-10  0.2000E+02
  -2.726  0.5129E-10  0.2000E+02
  -2.716  0.6027E-10  0.2000E+02
  -2.706  0.7077E-10  0.2000E+02
  -2.696  0.8304E-10  0.2000E+02
  -2.686  0.9738E-10  0.2000E+02
  -2.676  0.1141E-09  0.2000E+02
  -2.666  0.1336E-09  0.2000E+02
  -2.656  0.1564E-09  0.2000E+02
  -2.646  0.1829E-09  0.2000E+02
  -2.636  0.2138E-09  0.2000E+02
  -2.626  0.2497E-09  0.2000E+02
  -2.616  0.2915E-09  0.2000E+02
  -2.606  0.3400E-09  0.2000E+02
  -2.596  0.3964E-09  0.2000E+02
  -2.586  0.4618E-09  0.2000E+02
  -2.576  0.5376E-09  0.2000E+02
  -2.566  0.6255E-09  0.2000E+02
  -2.556  0.7272E-09  0.2000E+02
  -2.546  0.8450E-09  0.2000E+02
  -2.536  0.9812E-09  0.2000E+02
  -2.526  0.1139E-08  0.2000E+02
  -2.516  0.1320E-08  0.2000E+02
  -2.506  0.1530E-08  0.2000E+02
  -2.496  0.1772E-08  0.2000E+02
  -2.486  0.2051E-08  0.2000E+02
  -2.476  0.2372E-08  0.2000E+02
  -2.466  0.2742E-08  0.2000E+02
  -2.456  0.3167E-08  0.2000E+02
  -2.446  0.3656E-08  0.2000E+02
  -2.436  0.4218E-08  0.2000E+02
  -2.426  0.4863E-08  0.2000E+02
  -2.416  0.5602E-08  0.2000E+02
  -2.406  0.6450E-08  0.2000E+02
  -2.396  0.7422E-08  0.2000E+02
  -2.386  0.8534E-08  0.2000E+02
  -2.376  0.9807E-08  0.2000E+02
  -2.366  0.1126E-07  0.2000E+02
  -2.356  0.1293E-07  0.2000E+02
  -2.346  0.1482E-07  0.2000E+02
  -2.336  0.1699E-07  0.2000E+02
  -2.326  0.1946E-07  0.2000E+02
  -2.316  0.2228E-07  0.2000E+02
  -2.306  0.2548E-07  0.2000E+02
  -2.296  0.2913E-07  0.2000E+02
  -2.286  0.3329E-07  0.2000E+02
  -2.276  0.3800E-07  0.2000E+02
  -2.266  0.4336E-07  0.2000E+02
  -2.256  0.4944E-07  0.2000E+02
  -2.246  0.5634E-07  0.2000E+02
  -2.236  0.6417E-07  0.2000E+02
  -2.226  0.7303E-07  0.2000E+02
  -2.216  0.8306E-07  0.2000E+02
  -2.206  0.9440E-07  0.2000E+02
  -2.196  0.1072E-06  0.2000E+02
  -2.186  0.1217E-06  0.2000E+02
  -2.176  0.1381E-06  0.2000E+02
  -2.166  0.1566E-06  0.2000E+02
  -2.156  0.1774E-06  0.2000E+02
  -2.146  0.2009E-06  0.2000E+02
  -2.136  0.2273E-06  0.2000E+02
  -2.126  0.2570E-06  0.2000E+02
  -2.116  0.2905E-06  0.2000E+02
  -2.106  0.3281E-06  0.2000E+02
  -2.096  0.3703E-06  0.2000E+02
  -2.086  0.4177E-06  0.2000E+02
  -2.076  0.4709E-06  0.2000E+02
  -2.066  0.5304E-06  0.2000E+02
  -2.056  0.5972E-06  0.2000E+02
  -2.046  0.6720E-06  0.2000E+02
  -2.036  0.7556E-06  0.2000E+02
  -2.026  0.8491E-06  0.2000E+02
  -2.016  0.9535E-06  0.2000E+02
  -2.006  0.1070E-05  0.2000E+02
  -1.996  0.1200E-05  0.2000E+02
  -1.986  0.1345E-05  0.2000E+02
  -1.976  0.1507E-05  0.2000E+02
  -1.966  0.1687E-05  0.2000E+02
  -1.956  0.1888E-05  0.2000E+02
  -1.946  0.2111E-05  0.2000E+02
  -1.936  0.2359E-05  0.2000E+02
  -1.926  0.2634E-05  0.2000E+02
  -1.916  0.2940E-05  0.2000E+02
  -1.906  0.3279E-05  0.2000E+02
  -1.896  0.3655E-05  0.2000E+02
  -1.886  0.4072E-05  0.2000E+02
  -1.876  0.4533E-05  0.2000E+02
  -1.866  0.5044E-05  0.2000E+02
  -1.856  0.5609E-05  0.2000E+02
  -1.846  0.6233E-05  0.2000E+02
  -1.836  0.6922E-05  0.2000E+02
  -1.826  0.7682E-05  0.2000E+02
  -1.816  0.8521E-05  0.2000E+02
  -1.806  0.9446E-05  0.2000E+02
  -1.796  0.1047E-04  0.2000E+02
  -1.786  0.1159E-04  0.2000E+02
  -1.776  0.1282E-04  0.2000E+02
  -1.766  0.1418E-04  0.2000E+02
  -1.756  0.1567E-04  0.2000E+02
  -1.746  0.1731E-04  0.2000E+02
  -1.736  0.1911E-04  0.2000E+02
  -1.726  0.2108E-04  0.2000E+02
  -1.716  0.2324E-04  0.2000E+02
  -1.706  0.2561E-04  0.2000E+02
  -1.696  0.2820E-04  0.2000E+02
  -1.686  0.3103E-04  0.2000E+02
  -1.676  0.3413E-04  0.2000E+02
  -1.666  0.3752E-04  0.2000E+02
  -1.656  0.4122E-04  0.2000E+02
  -1.646  0.4526E-04  0.2000E+02
  -1.636  0.4966E-04  0.2000E+02
  -1.626  0.5446E-04  0.2000E+02
  -1.616  0.5969E-04  0.2000E+02
  -1.606  0.6538E-04  0.2000E+02
  -1.596  0.7157E-04  0.2000E+02
  -1.586  0.7830E-04  0.2000E+02
  -1.576  0.8562E-04  0.2000E+02
  -1.566  0.9356E-04  0.2000E+02
  -1.556  0.1022E-03  0.2000E+02
  -1.546  0.1115E-03  0.2000E+02
  -1.536  0.1217E-03  0.2000E+02
  -1.526  0.1327E-03  0.2000E+02
  -1.516  0.1445E-03  0.2000E+02
  -1.506  0.1574E-03  0.2000E+02
  -1.496  0.1713E-03  0.2000E+02
  -1.486  0.1864E-03  0.2000E+02
  -1.476  0.2026E-03  0.2000E+02
  -1.466  0.2201E-03  0.2000E+02
  -1.456  0.2390E-03  0.2000E+02
  -1.446  0.2594E-03  0.2000E+02
  -1.436  0.2814E-03  0.2000E+02
  -1.426  0.3050E-03  0.2000E+02
  -1.416  0.3305E-03  0.2000E+02
  -1.406  0.3578E-03  0.2000E+02
  -1.396  0.3873E-03  0.2000E+02
  -1.386  0.4189E-03  0.2000E+02
  -1.376  0.4528E-03  0.2000E+02
  -1.366  0.4892E-03  0.2000E+02
  -1.356  0.5282E-03  0.2000E+02
  -1.346  0.5701E-03  0.2000E+02
  -1.336  0.6149E-03  0.2000E+02
  -1.326  0.6629E-03  0.2000E+02
  -1.316  0.7142E-03  0.2000E+02
  -1.306  0.7691E-03  0.2000E+02
  -1.296  0.8277E-03  0.2000E+02
  -1.286  0.8904E-03  0.2000E+02
  -1.276  0.9572E-03  0.2000E+02
  -1.266  0.1029E-02  0.2000E+02
  -1.256  0.1105E-02  0.2000E+02
  -1.246  0.1186E-02  0.2000E+02
  -1.236  0.1272E-02  0.2000E+02
  -1.226  0.1364E-02  0.2000E+02
  -1.216  0.1461E-02  0.2000E+02
  -1.206  0.1565E-02  0.2000E+02
  -1.196  0.1675E-02  0.2000E+02
  -1.186  0.1792E-02  0.2000E+02
  -1.176  0.1917E-02  0.2000E+02
  -1.166  0.2048E-02  0.2000E+02
  -1.156  0.2188E-02  0.2000E+02
  -1.146  0.2336E-02  0.2000E+02
  -1.136  0.2493E-02  0.2000E+02
  -1.126  0.2659E-02  0.2000E+02
  -1.116  0.2834E-02  0.2000E+02
  -1.106  0.3020E-02  0.2000E+02
  -1.096  0.3215E-02  0.2000E+02
  -1.086  0.3422E-02  0.2000E+02
  -1.076  0.3640E-02  0.2000E+02
  -1.066  0.3871E-02  0.2000E+02
  -1.056  0.4113E-02  0.2000E+02
  -1.046  0.4369E-02  0.2000E+02
  -1.036  0.4638E-02  0.2000E+02
  -1.026  0.4921E-02  0.2000E+02
  -1.016  0.5219E-02  0.2000E+02
  -1.006  0.5532E-02  0.2000E+02
  -0.996  0.5861E-02  0.2000E+02
  -0.986  0.6206E-02  0.2000E+02
  -0.976  0.6568E-02  0.2000E+02
  -0.966  0.6948E-02  0.2000E+02
  -0.956  0.7347E-02  0.2000E+02
  -0.946  0.7764E-02  0.2000E+02
  -0.936  0.8201E-02  0.2000E+02
  -0.926  0.8658E-02  0.2000E+02
  -0.916  0.9136E-02  0.2000E+02
  -0.906  0.9636E-02  0.2000E+02
  -0.896  0.1016E-01  0.2000E+02
  -0.886  0.1070E-01  0.2000E+02
  -0.876  0.1127E-01  0.2000E+02
  -0.866  0.1187E-01  0.2000E+02
  -0.856  0.1249E-01  0.2000E+02
  -0.846  0.1313E-01  0.2000E+02
  -0.836  0.1380E-01  0.2000E+02
  -0.826  0.1450E-01  0.2000E+02
  -0.816  0.1523E-01  0.2000E+02
  -0.806  0.1598E-01  0.2000E+02
  -0.796  0.1677E-01  0.2000E+02
  -0.786  0.1758E-01  0.2000E+02
  -0.776  0.1843E-01  0.2000E+02
  -0.766  0.1931E-01  0.2000E+02
  -0.756  0.2021E-01  0.2000E+02
  -0.746  0.2116E-01  0.2000E+02
  -0.736  0.2213E-01  0.2000E+02
  -0.726  0.2314E-01  0.2000E+02
  -0.716  0.2419E-01  0.2000E+02
  -0.706  0.2527E-01  0.2000E+02
  -0.696  0.2638E-01  0.2001E+02
  -0.686  0.2754E-01  0.2001E+02
  -0.676  0.2873E-01  0.2001E+02
  -0.666  0.2995E-01  0.2001E+02
  -0.656  0.3122E-01  0.2001E+02
  -0.646  0.3252E-01  0.2001E+02
  -0.636  0.3386E-01  0.2001E+02
  -0.626  0.3525E-01  0.2001E+02
  -0.616  0.3667E-01  0.2001E+02
  -0.606  0.3813E-01  0.2001E+02
  -0.596  0.3963E-01  0.2001E+02
  -0.586  0.4117E-01  0.2001E+02
  -0.576  0.4276E-01  0.2001E+02
  -0.566  0.4438E-01  0.2001E+02
  -0.556  0.4604E-01  0.2001E+02
  -0.546  0.4775E-01  0.2001E+02
  -0.536  0.4950E-01  0.2001E+02
  -0.526  0.5128E-01  0.2001E+02
  -0.516  0.5311E-01  0.2001E+02
  -0.506  0.5498E-01  0.2001E+02
  -0.496  0.5690E-01  0.2001E+02
  -0.486  0.5885E-01  0.2001E+02
  -0.476  0.6084E-01  0.2001E+02
  -0.466  0.6287E-01  0.2002E+02
  -0.456  0.6495E-01  0.2002E+02
  -0.446  0.6706E-01  0.2002E+02
  -0.436  0.6921E-01  0.2002E+02
  -0.426  0.7140E-01  0.2002E+02
  -0.416  0.7363E-01  0.2002E+02
  -0.406  0.7589E-01  0.2002E+02
  -0.396  0.7819E-01  0.2002E+02
  -0.386  0.8053E-01  0.2002E+02
  -0.376  0.8291E-01  0.2002E+02
  -0.366  0.8532E-01  0.2002E+02
  -0.356  0.8776E-01  0.2002E+02
  -0.346  0.9024E-01  0.2002E+02
  -0.336  0.9275E-01  0.2003E+02
  -0.326  0.9529E-01  0.2003E+02
  -0.316  0.9786E-01  0.2003E+02
  -0.306  0.1005E+00  0.2003E+02
  -0.296  0.1031E+00  0.2003E+02
  -0.286  0.1057E+00  0.2003E+02
  -0.276  0.1084E+00  0.2003E+02
  -0.266  0.1111E+00  0.2003E+02
  -0.256  0.1139E+00  0.2003E+02
  -0.246  0.1166E+00  0.2004E+02
  -0.236  0.1194E+00  0.2004E+02
  -0.226  0.1222E+00  0.2004E+02
  -0.216  0.1250E+00  0.2004E+02
  -0.206  0.1279E+00  0.2004E+02
  -0.196  0.1307E+00  0.2004E+02
  -0.186  0.1336E+00  0.2004E+02
  -0.176  0.1365E+00  0.2004E+02
  -0.166  0.1394E+00  0.2005E+02
  -0.156  0.1424E+00  0.2005E+02
  -0.146  0.1453E+00  0.2005E+02
  -0.136  0.1482E+00  0.2005E+02
  -0.126  0.1512E+00  0.2005E+02
  -0.116  0.1542E+00  0.2005E+02
  -0.106  0.1571E+00  0.2005E+02
  -0.096  0.1601E+00  0.2006E+02
  -0.086  0.1631E+00  0.2006E+02
  -0.076  0.1661E+00  0.2006E+02
  -0.066  0.1691E+00  0.2006E+02
  -0.056  0.1721E+00  0.2006E+02
  -0.046  0.1751E+00  0.2006E+02
  -0.036  0.1781E+00  0.2007E+02
  -0.026  0.1811E+00  0.2007E+02
  -0.016  0.1841E+00  0.2007E+02
  -0.006  0.1872E+00  0.2007E+02
   0.004  0.1902E+00  0.2007E+02
   0.014  0.1932E+00  0.2008E+02
   0.024  0.1962E+00  0.2008E+02
   0.034  0.1992E+00  0.2008E+02
   0.044  0.2022E+00  0.2008E+02
   0.054  0.2052E+00  0.2008E+02
   0.064  0.2082E+00  0.2009E+02
   0.074  0.2112E+00  0.2009E+02
   0.084  0.2142E+00  0.2009E+02
   0.094  0.2172E+00  0.2009E+02
   0.104  0.2202E+00  0.2009E+02
   0.114  0.2231E+00  0.2010E+02
   0.124  0.2261E+00  0.2010E+02
   0.134  0.2291E+00  0.2010E+02
   0.144  0.2320E+00  0.2010E+02
   0.154  0.2350E+00  0.2011E+02
   0.164  0.2379E+00  0.2011E+02
   0.174  0.2408E+00  0.2011E+02
   0.184  0.2438E+00  0.2011E+02
   0.194  0.2467E+00  0.2012E+02
   0.204  0.2496E+00  0.2012E+02
   0.214  0.2525E+00  0.2012E+02
   0.224  0.2554E+00  0.2012E+02
   0.234  0.2582E+00  0.2013E+02
   0.244  0.2611E+00  0.2013E+02
   0.254  0.2640E+00  0.2013E+02
   0.264  0.2668E+00  0.2013E+02
   0.274  0.2696E+00  0.2014E+02
   0.284  0.2724E+00  0.2014E+02
   0.294  0.2752E+00  0.2014E+02
   0.304  0.2780E+00  0.2014E+02
   0.314  0.2808E+00  0.2015E+02
   0.324  0.2835E+00  0.2015E+02
   0.334  0.2862E+00  0.2015E+02
   0.344  0.2889E+00  0.2016E+02
   0.354  0.2916E+00  0.2016E+02
   0.364  0.2943E+00  0.2016E+02
   0.374  0.2969E+00  0.2016E+02
   0.384  0.2995E+00  0.2017E+02
   0.394  0.3021E+00  0.2017E+02
   0.404  0.3047E+00  0.2017E+02
   0.414  0.3072E+00  0.2018E+02
   0.424  0.3097E+00  0.2018E+02
   0.434  0.3122E+00  0.2018E+02
   0.444  0.3147E+00  0.2019E+02
   0.454  0.3171E+00  0.2019E+02
   0.464  0.3194E+00  0.2019E+02
   0.474  0.3218E+00  0.2020E+02
   0.484  0.3241E+00  0.2020E+02
   0.494  0.3263E+00  0.2020E+02
   0.504  0.3285E+00  0.2021E+02
   0.514  0.3307E+00  0.2021E+02
   0.524  0.3328E+00  0.2021E+02
   0.534  0.3349E+00  0.2022E+02
   0.544  0.3370E+00  0.2022E+02
   0.554  0.3390E+00  0.2022E+02
   0.564  0.3409E+00  0.2023E+02
   0.574  0.3428E+00  0.2023E+02
   0.584  0.3446E+00  0.2023E+02
   0.594  0.3464E+00  0.2024E+02
   0.604  0.3482E+00  0.2024E+02
   0.614  0.3498E+00  0.2024E+02
   0.624  0.3515E+00  0.2025E+02
   0.634  0.3530E+00  0.2025E+02
   0.644  0.3546E+00  0.2025E+02
   0.654  0.3560E+00  0.2026E+02
   0.664  0.3574E+00  0.2026E+02
   0.674  0.3588E+00  0.2026E+02
   0.684  0.3601E+00  0.2027E+02
   0.694  0.3613E+00  0.2027E+02
   0.704  0.3625E+00  0.2028E+02
   0.714  0.3636E+00  0.2028E+02
   0.724  0.3647E+00  0.2028E+02
   0.734  0.3657E+00  0.2029E+02
   0.744  0.3667E+00  0.2029E+02
   0.754  0.3677E+00  0.2029E+02
   0.764  0.3685E+00  0.2030E+02
   0.774  0.3694E+00  0.2030E+02
   0.784  0.3702E+00  0.2030E+02
   0.794  0.3709E+00  0.2031E+02
   0.804  0.3716E+00  0.2031E+02
   0.814  0.3723E+00  0.2032E+02
   0.824  0.3730E+00  0.2032E+02
   0.834  0.3736E+00  0.2032E+02
   0.844  0.3742E+00  0.2033E+02
   0.854  0.3747E+00  0.2033E+02
   0.864  0.3753E+00  0.2033E+02
   0.874  0.3758E+00  0.2034E+02
   0.884  0.3763E+00  0.2034E+02
   0.894  0.3768E+00  0.2035E+02
   0.904  0.3773E+00  0.2035E+02
   0.914  0.3778E+00  0.2035E+02
   0.924  0.3782E+00  0.2036E+02
   0.934  0.3787E+00  0.2036E+02
   0.944  0.3792E+00  0.2036E+02
   0.954  0.3797E+00  0.2037E+02
   0.964  0.3803E+00  0.2037E+02
   0.974  0.3808E+00  0.2038E+02
   0.984  0.3814E+00  0.2038E+02
   0.994  0.3820E+00  0.2038E+02
   1.004  0.3826E+00  0.2039E+02
   1.014  0.3833E+00  0.2039E+02
   1.024  0.3840E+00  0.2040E+02
   1.034  0.3847E+00  0.2040E+02
   1.044  0.3855E+00  0.2040E+02
   1.054  0.3864E+00  0.2041E+02
   1.064  0.3873E+00  0.2041E+02
   1.074  0.3883E+00  0.2041E+02
   1.084  0.3893E+00  0.2042E+02
   1.094  0.3904E+00  0.2042E+02
   1.104  0.3916E+00  0.2043E+02
   1.114  0.3929E+00  0.2043E+02
   1.124  0.3942E+00  0.2043E+02
   1.134  0.3956E+00  0.2044E+02
   1.144  0.3971E+00  0.2044E+02
   1.154  0.3987E+00  0.2045E+02
   1.164  0.4003E+00  0.2045E+02
   1.174  0.4021E+00  0.2045E+02
   1.184  0.4039E+00  0.2046E+02
   1.194  0.4058E+00  0.2046E+02
   1.204  0.4078E+00  0.2047E+02
   1.214  0.4099E+00  0.2047E+02
   1.224  0.4121E+00  0.2047E+02
   1.234  0.4144E+00  0.2048E+02
   1.244  0.4168E+00  0.2048E+02
   1.254  0.4193E+00  0.2049E+02
   1.264  0.4218E+00  0.2049E+02
   1.274  0.4245E+00  0.2050E+02
   1.284  0.4272E+00  0.2050E+02
   1.294  0.4301E+00  0.2050E+02
   1.304  0.4330E+00  0.2051E+02
   1.314  0.4360E+00  0.2051E+02
   1.324  0.4391E+00  0.2052E+02
   1.334  0.4423E+00  0.2052E+02
   1.344  0.4455E+00  0.2053E+02
   1.354  0.4489E+00  0.2053E+02
   1.364  0.4523E+00  0.2053E+02
   1.374  0.4557E+00  0.2054E+02
   1.384  0.4593E+00  0.2054E+02
   1.394  0.4629E+00  0.2055E+02
   1.404  0.4665E+00  0.2055E+02
   1.414  0.4703E+00  0.2056E+02
   1.424  0.4740E+00  0.2056E+02
   1.434  0.4778E+00  0.2057E+02
   1.444  0.4817E+00  0.2057E+02
   1.454  0.4856E+00  0.2058E+02
   1.464  0.4895E+00  0.2058E+02
   1.474  0.4935E+00  0.2059E+02
   1.484  0.4975E+00  0.2059E+02
   1.494  0.5015E+00  0.2060E+02
   1.504  0.5055E+00  0.2060E+02
   1.514  0.5096E+00  0.2061E+02
   1.524  0.5136E+00  0.2061E+02
   1.534  0.5176E+00  0.2062E+02
   1.544  0.5217E+00  0.2062E+02
   1.554  0.5257E+00  0.2063E+02
   1.564  0.5297E+00  0.2063E+02
   1.574  0.5337E+00  0.2064E+02
   1.584  0.5377E+00  0.2064E+02
   1.594  0.5416E+00  0.2065E+02
   1.604  0.5455E+00  0.2065E+02
   1.614  0.5494E+00  0.2066E+02
   1.624  0.5532E+00  0.2067E+02
   1.634  0.5570E+00  0.2067E+02
   1.644  0.5608E+00  0.2068E+02
   1.654  0.5644E+00  0.2068E+02
   1.664  0.5681E+00  0.2069E+02
   1.674  0.5716E+00  0.2069E+02
   1.684  0.5751E+00  0.2070E+02
   1.694  0.5785E+00  0.2071E+02
   1.704  0.5819E+00  0.2071E+02
   1.714  0.5852E+00  0.2072E+02
   1.724  0.5884E+00  0.2072E+02
   1.734  0.5915E+00  0.2073E+02
   1.744  0.5945E+00  0.2074E+02
   1.754  0.5975E+00  0.2074E+02
   1.764  0.6003E+00  0.2075E+02
   1.774  0.6031E+00  0.2075E+02
   1.784  0.6057E+00  0.2076E+02
   1.794  0.6083E+00  0.2077E+02
   1.804  0.6108E+00  0.2077E+02
   1.814  0.6131E+00  0.2078E+02
   1.824  0.6154E+00  0.2078E+02
   1.834  0.6176E+00  0.2079E+02
   1.844  0.6197E+00  0.2080E+02
   1.854  0.6216E+00  0.2080E+02
   1.864  0.6235E+00  0.2081E+02
   1.874  0.6253E+00  0.2081E+02
   1.884  0.6269E+00  0.2082E+02
   1.894  0.6285E+00  0.2083E+02
   1.904  0.6299E+00  0.2083E+02
   1.914  0.6312E+00  0.2084E+02
   1.924  0.6325E+00  0.2085E+02
   1.934  0.6336E+00  0.2085E+02
   1.944  0.6346E+00  0.2086E+02
   1.954  0.6356E+00  0.2087E+02
   1.964  0.6364E+00  0.2087E+02
   1.974  0.6371E+00  0.2088E+02
   1.984  0.6377E+00  0.2088E+02
   1.994  0.6383E+00  0.2089E+02
   2.004  0.6387E+00  0.2090E+02
   2.014  0.6390E+00  0.2090E+02
   2.024  0.6393E+00  0.2091E+02
   2.034  0.6394E+00  0.2092E+02
   2.044  0.6395E+00  0.2092E+02
   2.054  0.6394E+00  0.2093E+02
   2.064  0.6393E+00  0.2094E+02
   2.074  0.6391E+00  0.2094E+02
   2.084  0.6388E+00  0.2095E+02
   2.094  0.6385E+00  0.2095E+02
   2.104  0.6380E+00  0.2096E+02
   2.114  0.6375E+00  0.2097E+02
   2.124  0.6369E+00  0.2097E+02
   2.134  0.6362E+00  0.2098E+02
   2.144  0.6355E+00  0.2099E+02
   2.154  0.6347E+00  0.2099E+02
   2.164  0.6338E+00  0.2100E+02
   2.174  0.6329E+00  0.2101E+02
   2.184  0.6319E+00  0.2101E+02
   2.194  0.6309E+00  0.2102E+02
   2.204  0.6298E+00  0.2102E+02
   2.214  0.6286E+00  0.2103E+02
   2.224  0.6275E+00  0.2104E+02
   2.234  0.6262E+00  0.2104E+02
   2.244  0.6250E+00  0.2105E+02
   2.254  0.6237E+00  0.2106E+02
   2.264  0.6223E+00  0.2106E+02
   2.274  0.6210E+00  0.2107E+02
   2.284  0.6196E+00  0.2107E+02
   2.294  0.6182E+00  0.2108E+02
   2.304  0.6167E+00  0.2109E+02
   2.314  0.6153E+00  0.2109E+02
   2.324  0.6138E+00  0.2110E+02
   2.334  0.6124E+00  0.2111E+02
   2.344  0.6109E+00  0.2111E+02
   2.354  0.6095E+00  0.2112E+02
   2.364  0.6080E+00  0.2112E+02
   2.374  0.6066E+00  0.2113E+02
   2.384  0.6052E+00  0.2114E+02
   2.394  0.6038E+00  0.2114E+02
   2.404  0.6024E+00  0.2115E+02
   2.414  0.6010E+00  0.2115E+02
   2.424  0.5997E+00  0.2116E+02
   2.434  0.5984E+00  0.2117E+02
   2.444  0.5972E+00  0.2117E+02
   2.454  0.5960E+00  0.2118E+02
   2.464  0.5948E+00  0.2118E+02
   2.474  0.5937E+00  0.2119E+02
   2.484  0.5927E+00  0.2120E+02
   2.494  0.5917E+00  0.2120E+02
   2.504  0.5908E+00  0.2121E+02
   2.514  0.5900E+00  0.2121E+02
   2.524  0.5893E+00  0.2122E+02
   2.534  0.5886E+00  0.2122E+02
   2.544  0.5880E+00  0.2123E+02
   2.554  0.5876E+00  0.2124E+02
   2.564  0.5872E+00  0.2124E+02
   2.574  0.5869E+00  0.2125E+02
   2.584  0.5867E+00  0.2125E+02
   2.594  0.5867E+00  0.2126E+02
   2.604  0.5867E+00  0.2127E+02
   2.614  0.5869E+00  0.2127E+02
   2.624  0.5872E+00  0.2128E+02
   2.634  0.5876E+00  0.2128E+02
   2.644  0.5881E+00  0.2129E+02
   2.654  0.5888E+00  0.2130E+02
   2.664  0.5896E+00  0.2130E+02
   2.674  0.5906E+00  0.2131E+02
   2.684  0.5917E+00  0.2131E+02
   2.694  0.5930E+00  0.2132E+02
   2.704  0.5944E+00  0.2132E+02
   2.714  0.5959E+00  0.2133E+02
   2.724  0.5977E+00  0.2134E+02
   2.734  0.5996E+00  0.2134E+02
   2.744  0.6016E+00  0.2135E+02
   2.754  0.6038E+00  0.2135E+02
   2.764  0.6062E+00  0.2136E+02
   2.774  0.6088E+00  0.2137E+02
   2.784  0.6115E+00  0.2137E+02
   2.794  0.6144E+00  0.2138E+02
   2.804  0.6175E+00  0.2139E+02
   2.814  0.6207E+00  0.2139E+02
   2.824  0.6242E+00  0.2140E+02
   2.834  0.6278E+00  0.2140E+02
   2.844  0.6316E+00  0.2141E+02
   2.854  0.6355E+00  0.2142E+02
   2.864  0.6397E+00  0.2142E+02
   2.874  0.6440E+00  0.2143E+02
   2.884  0.6485E+00  0.2144E+02
   2.894  0.6532E+00  0.2144E+02
   2.904  0.6580E+00  0.2145E+02
   2.914  0.6630E+00  0.2146E+02
   2.924  0.6682E+00  0.2146E+02
   2.934  0.6736E+00  0.2147E+02
   2.944  0.6791E+00  0.2148E+02
   2.954  0.6848E+00  0.2148E+02
   2.964  0.6906E+00  0.2149E+02
   2.974  0.6966E+00  0.2150E+02
   2.984  0.7027E+00  0.2150E+02
   2.994  0.7090E+00  0.2151E+02
   3.004  0.7155E+00  0.2152E+02
   3.014  0.7221E+00  0.2153E+02
   3.024  0.7288E+00  0.2153E+02
   3.034  0.7356E+00  0.2154E+02
   3.044  0.7426E+00  0.2155E+02
   3.054  0.7497E+00  0.2155E+02
   3.064  0.7569E+00  0.2156E+02
   3.074  0.7642E+00  0.2157E+02
   3.084  0.7716E+00  0.2158E+02
   3.094  0.7791E+00  0.2159E+02
   3.104  0.7867E+00  0.2159E+02
   3.114  0.7944E+00  0.2160E+02
   3.124  0.8021E+00  0.2161E+02
   3.134  0.8099E+00  0.2162E+02
   3.144  0.8178E+00  0.2163E+02
   3.154  0.8256E+00  0.2163E+02
   3.164  0.8336E+00  0.2164E+02
   3.174  0.8415E+00  0.2165E+02
   3.184  0.8495E+00  0.2166E+02
   3.194  0.8575E+00  0.2167E+02
   3.204  0.8655E+00  0.2168E+02
   3.214  0.8735E+00  0.2169E+02
   3.224  0.8814E+00  0.2169E+02
   3.234  0.8893E+00  0.2170E+02
   3.244  0.8972E+00  0.2171E+02
   3.254  0.9051E+00  0.2172E+02
   3.264  0.9128E+00  0.2173E+02
   3.274  0.9205E+00  0.2174E+02
   3.284  0.9281E+00  0.2175E+02
   3.294  0.9357E+00  0.2176E+02
   3.304  0.9431E+00  0.2177E+02
   3.314  0.9504E+00  0.2178E+02
   3.324  0.9576E+00  0.2179E+02
   3.334  0.9646E+00  0.2180E+02
   3.344  0.9715E+00  0.2181E+02
   3.354  0.9782E+00  0.2182E+02
   3.364  0.9848E+00  0.2183E+02
   3.374  0.9912E+00  0.2184E+02
   3.384  0.9974E+00  0.2185E+02
   3.394  0.1003E+01  0.2186E+02
   3.404  0.1009E+01  0.2187E+02
   3.414  0.1015E+01  0.2188E+02
   3.424  0.1020E+01  0.2189E+02
   3.434  0.1025E+01  0.2190E+02
   3.444  0.1030E+01  0.2191E+02
   3.454  0.1035E+01  0.2192E+02
   3.464  0.1039E+01  0.2193E+02
   3.474  0.1043E+01  0.2194E+02
   3.484  0.1047E+01  0.2195E+02
   3.494  0.1050E+01  0.2196E+02
   3.504  0.1053E+01  0.2197E+02
   3.514  0.1056E+01  0.2198E+02
   3.524  0.1059E+01  0.2199E+02
   3.534  0.1061E+01  0.2200E+02
   3.544  0.1063E+01  0.2201E+02
   3.554  0.1065E+01  0.2202E+02
   3.564  0.1066E+01  0.2203E+02
   3.574  0.1067E+01  0.2204E+02
   3.584  0.1067E+01  0.2205E+02
   3.594  0.1068E+01  0.2206E+02
   3.604  0.1068E+01  0.2208E+02
   3.614  0.1067E+01  0.2209E+02
   3.624  0.1066E+01  0.2210E+02
   3.634  0.1065E+01  0.2211E+02
   3.644  0.1064E+01  0.2212E+02
   3.654  0.1062E+01  0.2213E+02
   3.664  0.1060E+01  0.2214E+02
   3.674  0.1057E+01  0.2215E+02
   3.684  0.1054E+01  0.2216E+02
   3.694  0.1051E+01  0.2217E+02
   3.704  0.1047E+01  0.2218E+02
   3.714  0.1043E+01  0.2219E+02
   3.724  0.1039E+01  0.2220E+02
   3.734  0.1034E+01  0.2221E+02
   3.744  0.1029E+01  0.2222E+02
   3.754  0.1024E+01  0.2223E+02
   3.764  0.1019E+01  0.2224E+02
   3.774  0.1013E+01  0.2225E+02
   3.784  0.1007E+01  0.2226E+02
   3.794  0.1000E+01  0.2227E+02
   3.804  0.9934E+00  0.2228E+02
   3.814  0.9865E+00  0.2229E+02
   3.824  0.9792E+00  0.2230E+02
   3.834  0.9717E+00  0.2231E+02
   3.844  0.9640E+00  0.2232E+02
   3.854  0.9560E+00  0.2233E+02
   3.864  0.9478E+00  0.2234E+02
   3.874  0.9395E+00  0.2235E+02
   3.884  0.9309E+00  0.2236E+02
   3.894  0.9221E+00  0.2237E+02
   3.904  0.9132E+00  0.2238E+02
   3.914  0.9041E+00  0.2239E+02
   3.924  0.8949E+00  0.2240E+02
   3.934  0.8856E+00  0.2241E+02
   3.944  0.8761E+00  0.2241E+02
   3.954  0.8665E+00  0.2242E+02
   3.964  0.8569E+00  0.2243E+02
   3.974  0.8471E+00  0.2244E+02
   3.984  0.8374E+00  0.2245E+02
   3.994  0.8275E+00  0.2246E+02
   4.004  0.8176E+00  0.2246E+02
   4.014  0.8078E+00  0.2247E+02
   4.024  0.7979E+00  0.2248E+02
   4.034  0.7880E+00  0.2249E+02
   4.044  0.7781E+00  0.2250E+02
   4.054  0.7683E+00  0.2250E+02
   4.064  0.7585E+00  0.2251E+02
   4.074  0.7487E+00  0.2252E+02
   4.084  0.7391E+00  0.2253E+02
   4.094  0.7295E+00  0.2253E+02
   4.104  0.7200E+00  0.2254E+02
   4.114  0.7107E+00  0.2255E+02
   4.124  0.7014E+00  0.2256E+02
   4.134  0.6923E+00  0.2256E+02
   4.144  0.6834E+00  0.2257E+02
   4.154  0.6745E+00  0.2258E+02
   4.164  0.6659E+00  0.2258E+02
   4.174  0.6574E+00  0.2259E+02
   4.184  0.6491E+00  0.2260E+02
   4.194  0.6410E+00  0.2260E+02
   4.204  0.6331E+00  0.2261E+02
   4.214  0.6254E+00  0.2261E+02
   4.224  0.6180E+00  0.2262E+02
   4.234  0.6107E+00  0.2263E+02
   4.244  0.6037E+00  0.2263E+02
   4.254  0.5970E+00  0.2264E+02
   4.264  0.5904E+00  0.2264E+02
   4.274  0.5842E+00  0.2265E+02
   4.284  0.5781E+00  0.2266E+02
   4.294  0.5724E+00  0.2266E+02
   4.304  0.5669E+00  0.2267E+02
   4.314  0.5617E+00  0.2267E+02
   4.324  0.5568E+00  0.2268E+02
   4.334  0.5521E+00  0.2268E+02
   4.344  0.5477E+00  0.2269E+02
   4.354  0.5436E+00  0.2270E+02
   4.364  0.5398E+00  0.2270E+02
   4.374  0.5363E+00  0.2271E+02
   4.384  0.5331E+00  0.2271E+02
   4.394  0.5301E+00  0.2272E+02
   4.404  0.5275E+00  0.2272E+02
   4.414  0.5251E+00  0.2273E+02
   4.424  0.5230E+00  0.2273E+02
   4.434  0.5212E+00  0.2274E+02
   4.444  0.5197E+00  0.2274E+02
   4.454  0.5185E+00  0.2275E+02
   4.464  0.5176E+00  0.2275E+02
   4.474  0.5169E+00  0.2276E+02
   4.484  0.5166E+00  0.2276E+02
   4.494  0.5165E+00  0.2277E+02
   4.504  0.5166E+00  0.2277E+02
   4.514  0.5171E+00  0.2278E+02
   4.524  0.5178E+00  0.2278E+02
   4.534  0.5187E+00  0.2279E+02
   4.544  0.5199E+00  0.2279E+02
   4.554  0.5214E+00  0.2280E+02
   4.564  0.5231E+00  0.2280E+02
   4.574  0.5250E+00  0.2281E+02
   4.584  0.5272E+00  0.2282E+02
   4.594  0.5296E+00  0.2282E+02
   4.604  0.5322E+00  0.2283E+02
   4.614  0.5350E+00  0.2283E+02
   4.624  0.5380E+00  0.2284E+02
   4.634  0.5412E+00  0.2284E+02
   4.644  0.5446E+00  0.2285E+02
   4.654  0.5481E+00  0.2285E+02
   4.664  0.5518E+00  0.2286E+02
   4.674  0.5557E+00  0.2286E+02
   4.684  0.5598E+00  0.2287E+02
   4.694  0.5639E+00  0.2288E+02
   4.704  0.5683E+00  0.2288E+02
   4.714  0.5727E+00  0.2289E+02
   4.724  0.5772E+00  0.2289E+02
   4.734  0.5818E+00  0.2290E+02
   4.744  0.5866E+00  0.2290E+02
   4.754  0.5914E+00  0.2291E+02
   4.764  0.5962E+00  0.2292E+02
   4.774  0.6012E+00  0.2292E+02
   4.784  0.6061E+00  0.2293E+02
   4.794  0.6111E+00  0.2293E+02
   4.804  0.6162E+00  0.2294E+02
   4.814  0.6212E+00  0.2295E+02
   4.824  0.6263E+00  0.2295E+02
   4.834  0.6313E+00  0.2296E+02
   4.844  0.6363E+00  0.2297E+02
   4.854  0.6413E+00  0.2297E+02
   4.864  0.6462E+00  0.2298E+02
   4.874  0.6511E+00  0.2299E+02
   4.884  0.6559E+00  0.2299E+02
   4.894  0.6607E+00  0.2300E+02
   4.904  0.6653E+00  0.2300E+02
   4.914  0.6699E+00  0.2301E+02
   4.924  0.6743E+00  0.2302E+02
   4.934  0.6786E+00  0.2303E+02
   4.944  0.6828E+00  0.2303E+02
   4.954  0.6869E+00  0.2304E+02
   4.964  0.6908E+00  0.2305E+02
   4.974  0.6946E+00  0.2305E+02
   4.984  0.6982E+00  0.2306E+02
   4.994  0.7016E+00  0.2307E+02
   5.004  0.7049E+00  0.2307E+02
   5.014  0.7079E+00  0.2308E+02
   5.024  0.7108E+00  0.2309E+02
   5.034  0.7134E+00  0.2309E+02
   5.044  0.7159E+00  0.2310E+02
   5.054  0.7181E+00  0.2311E+02
   5.064  0.7201E+00  0.2312E+02
   5.074  0.7219E+00  0.2312E+02
   5.084  0.7235E+00  0.2313E+02
   5.094  0.7248E+00  0.2314E+02
   5.104  0.7259E+00  0.2315E+02
   5.114  0.7267E+00  0.2315E+02
   5.124  0.7273E+00  0.2316E+02
   5.134  0.7277E+00  0.2317E+02
   5.144  0.7278E+00  0.2317E+02
   5.154  0.7276E+00  0.2318E+02
   5.164  0.7272E+00  0.2319E+02
   5.174  0.7266E+00  0.2320E+02
   5.184  0.7257E+00  0.2320E+02
   5.194  0.7245E+00  0.2321E+02
   5.204  0.7231E+00  0.2322E+02
   5.214  0.7215E+00  0.2323E+02
   5.224  0.7196E+00  0.2323E+02
   5.234  0.7175E+00  0.2324E+02
   5.244  0.7152E+00  0.2325E+02
   5.254  0.7126E+00  0.2325E+02
   5.264  0.7098E+00  0.2326E+02
   5.274  0.7067E+00  0.2327E+02
   5.284  0.7035E+00  0.2328E+02
   5.294  0.7000E+00  0.2328E+02
   5.304  0.6963E+00  0.2329E+02
   5.314  0.6925E+00  0.2330E+02
   5.324  0.6884E+00  0.2330E+02
   5.334  0.6841E+00  0.2331E+02
   5.344  0.6797E+00  0.2332E+02
   5.354  0.6751E+00  0.2332E+02
   5.364  0.6703E+00  0.2333E+02
   5.374  0.6653E+00  0.2334E+02
   5.384  0.6602E+00  0.2334E+02
   5.394  0.6550E+00  0.2335E+02
   5.404  0.6496E+00  0.2336E+02
   5.414  0.6441E+00  0.2336E+02
   5.424  0.6385E+00  0.2337E+02
   5.434  0.6328E+00  0.2338E+02
   5.444  0.6269E+00  0.2338E+02
   5.454  0.6210E+00  0.2339E+02
   5.464  0.6150E+00  0.2339E+02
   5.474  0.6089E+00  0.2340E+02
   5.484  0.6027E+00  0.2341E+02
   5.494  0.5965E+00  0.2341E+02
   5.504  0.5902E+00  0.2342E+02
   5.514  0.5839E+00  0.2342E+02
   5.524  0.5775E+00  0.2343E+02
   5.534  0.5711E+00  0.2344E+02
   5.544  0.5647E+00  0.2344E+02
   5.554  0.5583E+00  0.2345E+02
   5.564  0.5519E+00  0.2345E+02
   5.574  0.5455E+00  0.2346E+02
   5.584  0.5391E+00  0.2346E+02
   5.594  0.5327E+00  0.2347E+02
   5.604  0.5264E+00  0.2347E+02
   5.614  0.5200E+00  0.2348E+02
   5.624  0.5137E+00  0.2348E+02
   5.634  0.5075E+00  0.2349E+02
   5.644  0.5013E+00  0.2349E+02
   5.654  0.4952E+00  0.2350E+02
   5.664  0.4891E+00  0.2350E+02
   5.674  0.4831E+00  0.2351E+02
   5.684  0.4772E+00  0.2351E+02
   5.694  0.4714E+00  0.2352E+02
   5.704  0.4656E+00  0.2352E+02
   5.714  0.4600E+00  0.2353E+02
   5.724  0.4544E+00  0.2353E+02
   5.734  0.4490E+00  0.2354E+02
   5.744  0.4436E+00  0.2354E+02
   5.754  0.4384E+00  0.2355E+02
   5.764  0.4333E+00  0.2355E+02
   5.774  0.4283E+00  0.2355E+02
   5.784  0.4234E+00  0.2356E+02
   5.794  0.4186E+00  0.2356E+02
   5.804  0.4140E+00  0.2357E+02
   5.814  0.4095E+00  0.2357E+02
   5.824  0.4052E+00  0.2357E+02
   5.834  0.4010E+00  0.2358E+02
   5.844  0.3970E+00  0.2358E+02
   5.854  0.3930E+00  0.2359E+02
   5.864  0.3893E+00  0.2359E+02
   5.874  0.3857E+00  0.2359E+02
   5.884  0.3823E+00  0.2360E+02
   5.894  0.3790E+00  0.2360E+02
   5.904  0.3759E+00  0.2361E+02
   5.914  0.3729E+00  0.2361E+02
   5.924  0.3701E+00  0.2361E+02
   5.934  0.3675E+00  0.2362E+02
   5.944  0.3651E+00  0.2362E+02
   5.954  0.3628E+00  0.2362E+02
   5.964  0.3607E+00  0.2363E+02
   5.974  0.3588E+00  0.2363E+02
   5.984  0.3570E+00  0.2363E+02
   5.994  0.3554E+00  0.2364E+02
   6.004  0.3541E+00  0.2364E+02
   6.014  0.3528E+00  0.2365E+02
   6.024  0.3518E+00  0.2365E+02
   6.034  0.3510E+00  0.2365E+02
   6.044  0.3503E+00  0.2366E+02
   6.054  0.3498E+00  0.2366E+02
   6.064  0.3495E+00  0.2366E+02
   6.074  0.3494E+00  0.2367E+02
   6.084  0.3495E+00  0.2367E+02
   6.094  0.3498E+00  0.2367E+02
   6.104  0.3502E+00  0.2368E+02
   6.114  0.3508E+00  0.2368E+02
   6.124  0.3516E+00  0.2368E+02
   6.134  0.3526E+00  0.2369E+02
   6.144  0.3537E+00  0.2369E+02
   6.154  0.3551E+00  0.2369E+02
   6.164  0.3566E+00  0.2370E+02
   6.174  0.3582E+00  0.2370E+02
   6.184  0.3601E+00  0.2371E+02
   6.194  0.3621E+00  0.2371E+02
   6.204  0.3642E+00  0.2371E+02
   6.214  0.3666E+00  0.2372E+02
   6.224  0.3690E+00  0.2372E+02
   6.234  0.3717E+00  0.2372E+02
   6.244  0.3745E+00  0.2373E+02
   6.254  0.3774E+00  0.2373E+02
   6.264  0.3805E+00  0.2374E+02
   6.274  0.3837E+00  0.2374E+02
   6.284  0.3870E+00  0.2374E+02
   6.294  0.3905E+00  0.2375E+02
   6.304  0.3940E+00  0.2375E+02
   6.314  0.3978E+00  0.2375E+02
   6.324  0.4016E+00  0.2376E+02
   6.334  0.4055E+00  0.2376E+02
   6.344  0.4095E+00  0.2377E+02
   6.354  0.4136E+00  0.2377E+02
   6.364  0.4179E+00  0.2378E+02
   6.374  0.4222E+00  0.2378E+02
   6.384  0.4265E+00  0.2378E+02
   6.394  0.4310E+00  0.2379E+02
   6.404  0.4355E+00  0.2379E+02
   6.414  0.4401E+00  0.2380E+02
   6.424  0.4447E+00  0.2380E+02
   6.434  0.4494E+00  0.2381E+02
   6.444  0.4541E+00  0.2381E+02
   6.454  0.4589E+00  0.2381E+02
   6.464  0.4637E+00  0.2382E+02
   6.474  0.4685E+00  0.2382E+02
   6.484  0.4734E+00  0.2383E+02
   6.494  0.4782E+00  0.2383E+02
   6.504  0.4831E+00  0.2384E+02
   6.514  0.4880E+00  0.2384E+02
   6.524  0.4929E+00  0.2385E+02
   6.534  0.4978E+00  0.2385E+02
   6.544  0.5026E+00  0.2386E+02
   6.554  0.5075E+00  0.2386E+02
   6.564  0.5123E+00  0.2387E+02
   6.574  0.5172E+00  0.2387E+02
   6.584  0.5220E+00  0.2388E+02
   6.594  0.5267E+00  0.2388E+02
   6.604  0.5315E+00  0.2389E+02
   6.614  0.5362E+00  0.2389E+02
   6.624  0.5408E+00  0.2390E+02
   6.634  0.5455E+00  0.2391E+02
   6.644  0.5501E+00  0.2391E+02
   6.654  0.5546E+00  0.2392E+02
   6.664  0.5591E+00  0.2392E+02
   6.674  0.5635E+00  0.2393E+02
   6.684  0.5679E+00  0.2393E+02
   6.694  0.5723E+00  0.2394E+02
   6.704  0.5766E+00  0.2394E+02
   6.714  0.5808E+00  0.2395E+02
   6.724  0.5850E+00  0.2396E+02
   6.734  0.5892E+00  0.2396E+02
   6.744  0.5933E+00  0.2397E+02
   6.754  0.5973E+00  0.2397E+02
   6.764  0.6013E+00  0.2398E+02
   6.774  0.6053E+00  0.2399E+02
   6.784  0.6092E+00  0.2399E+02
   6.794  0.6130E+00  0.2400E+02
   6.804  0.6169E+00  0.2400E+02
   6.814  0.6206E+00  0.2401E+02
   6.824  0.6244E+00  0.2402E+02
   6.834  0.6281E+00  0.2402E+02
   6.844  0.6318E+00  0.2403E+02
   6.854  0.6354E+00  0.2404E+02
   6.864  0.6390E+00  0.2404E+02
   6.874  0.6426E+00  0.2405E+02
   6.884  0.6461E+00  0.2406E+02
   6.894  0.6497E+00  0.2406E+02
   6.904  0.6532E+00  0.2407E+02
   6.914  0.6567E+00  0.2408E+02
   6.924  0.6602E+00  0.2408E+02
   6.934  0.6637E+00  0.2409E+02
   6.944  0.6672E+00  0.2410E+02
   6.954  0.6707E+00  0.2410E+02
   6.964  0.6742E+00  0.2411E+02
   6.974  0.6777E+00  0.2412E+02
   6.984  0.6812E+00  0.2412E+02
   6.994  0.6847E+00  0.2413E+02
   7.004  0.6882E+00  0.2414E+02
   7.014  0.6917E+00  0.2414E+02
   7.024  0.6953E+00  0.2415E+02
   7.034  0.6989E+00  0.2416E+02
   7.044  0.7025E+00  0.2416E+02
   7.054  0.7061E+00  0.2417E+02
   7.064  0.7098E+00  0.2418E+02
   7.074  0.7135E+00  0.2419E+02
   7.084  0.7172E+00  0.2419E+02
   7.094  0.7210E+00  0.2420E+02
   7.104  0.7248E+00  0.2421E+02
   7.114  0.7286E+00  0.2421E+02
   7.124  0.7325E+00  0.2422E+02
   7.134  0.7364E+00  0.2423E+02
   7.144  0.7404E+00  0.2424E+02
   7.154  0.7444E+00  0.2424E+02
   7.164  0.7484E+00  0.2425E+02
   7.174  0.7525E+00  0.2426E+02
   7.184  0.7566E+00  0.2427E+02
   7.194  0.7608E+00  0.2427E+02
   7.204  0.7650E+00  0.2428E+02
   7.214  0.7692E+00  0.2429E+02
   7.224  0.7735E+00  0.2430E+02
   7.234  0.7778E+00  0.2430E+02
   7.244  0.7821E+00  0.2431E+02
   7.254  0.7865E+00  0.2432E+02
   7.264  0.7910E+00  0.2433E+02
   7.274  0.7954E+00  0.2434E+02
   7.284  0.7999E+00  0.2434E+02
   7.294  0.8044E+00  0.2435E+02
   7.304  0.8089E+00  0.2436E+02
   7.314  0.8135E+00  0.2437E+02
   7.324  0.8180E+00  0.2438E+02
   7.334  0.8226E+00  0.2438E+02
   7.344  0.8272E+00  0.2439E+02
   7.354  0.8318E+00  0.2440E+02
   7.364  0.8364E+00  0.2441E+02
   7.374  0.8410E+00  0.2442E+02
   7.384  0.8456E+00  0.2443E+02
   7.394  0.8501E+00  0.2444E+02
   7.404  0.8547E+00  0.2444E+02
   7.414  0.8592E+00  0.2445E+02
   7.424  0.8638E+00  0.2446E+02
   7.434  0.8683E+00  0.2447E+02
   7.444  0.8727E+00  0.2448E+02
   7.454  0.8771E+00  0.2449E+02
   7.464  0.8815E+00  0.2450E+02
   7.474  0.8858E+00  0.2450E+02
   7.484  0.8901E+00  0.2451E+02
   7.494  0.8943E+00  0.2452E+02
   7.504  0.8985E+00  0.2453E+02
   7.514  0.9026E+00  0.2454E+02
   7.524  0.9066E+00  0.2455E+02
   7.534  0.9105E+00  0.2456E+02
   7.544  0.9144E+00  0.2457E+02
   7.554  0.9182E+00  0.2458E+02
   7.564  0.9218E+00  0.2459E+02
   7.574  0.9254E+00  0.2460E+02
   7.584  0.9289E+00  0.2460E+02
   7.594  0.9323E+00  0.2461E+02
   7.604  0.9355E+00  0.2462E+02
   7.614  0.9387E+00  0.2463E+02
   7.624  0.9417E+00  0.2464E+02
   7.634  0.9446E+00  0.2465E+02
   7.644  0.9474E+00  0.2466E+02
   7.654  0.9500E+00  0.2467E+02
   7.664  0.9525E+00  0.2468E+02
   7.674  0.9549E+00  0.2469E+02
   7.684  0.9571E+00  0.2470E+02
   7.694  0.9592E+00  0.2471E+02
   7.704  0.9611E+00  0.2472E+02
   7.714  0.9629E+00  0.2473E+02
   7.724  0.9645E+00  0.2474E+02
   7.734  0.9660E+00  0.2475E+02
   7.744  0.9673E+00  0.2476E+02
   7.754  0.9685E+00  0.2477E+02
   7.764  0.9695E+00  0.2478E+02
   7.774  0.9704E+00  0.2479E+02
   7.784  0.9711E+00  0.2480E+02
   7.794  0.9716E+00  0.2481E+02
   7.804  0.9720E+00  0.2482E+02
   7.814  0.9722E+00  0.2483E+02
   7.824  0.9723E+00  0.2483E+02
   7.834  0.9722E+00  0.2484E+02
   7.844  0.9719E+00  0.2485E+02
   7.854  0.9715E+00  0.2486E+02
   7.864  0.9710E+00  0.2487E+02
   7.874  0.9703E+00  0.2488E+02
   7.884  0.9694E+00  0.2489E+02
   7.894  0.9684E+00  0.2490E+02
   7.904  0.9673E+00  0.2491E+02
   7.914  0.9660E+00  0.2492E+02
   7.924  0.9646E+00  0.2493E+02
   7.934  0.9631E+00  0.2494E+02
   7.944  0.9615E+00  0.2495E+02
   7.954  0.9597E+00  0.2496E+02
   7.964  0.9578E+00  0.2497E+02
   7.974  0.9558E+00  0.2498E+02
   7.984  0.9537E+00  0.2499E+02
   7.994  0.9515E+00  0.2500E+02
   8.004  0.9492E+00  0.2501E+02
   8.014  0.9468E+00  0.2502E+02
   8.024  0.9444E+00  0.2503E+02
   8.034  0.9418E+00  0.2504E+02
   8.044  0.9392E+00  0.2505E+02
   8.054  0.9366E+00  0.2506E+02
   8.064  0.9339E+00  0.2506E+02
   8.074  0.9311E+00  0.2507E+02
   8.084  0.9283E+00  0.2508E+02
   8.094  0.9255E+00  0.2509E+02
   8.104  0.9227E+00  0.2510E+02
   8.114  0.9199E+00  0.2511E+02
   8.124  0.9170E+00  0.2512E+02
   8.134  0.9142E+00  0.2513E+02
   8.144  0.9113E+00  0.2514E+02
   8.154  0.9085E+00  0.2515E+02
   8.164  0.9058E+00  0.2516E+02
   8.174  0.9030E+00  0.2517E+02
   8.184  0.9004E+00  0.2517E+02
   8.194  0.8977E+00  0.2518E+02
   8.204  0.8952E+00  0.2519E+02
   8.214  0.8927E+00  0.2520E+02
   8.224  0.8903E+00  0.2521E+02
   8.234  0.8880E+00  0.2522E+02
   8.244  0.8858E+00  0.2523E+02
   8.254  0.8837E+00  0.2524E+02
   8.264  0.8817E+00  0.2525E+02
   8.274  0.8798E+00  0.2525E+02
   8.284  0.8781E+00  0.2526E+02
   8.294  0.8765E+00  0.2527E+02
   8.304  0.8751E+00  0.2528E+02
   8.314  0.8738E+00  0.2529E+02
   8.324  0.8728E+00  0.2530E+02
   8.334  0.8718E+00  0.2531E+02
   8.344  0.8711E+00  0.2532E+02
   8.354  0.8705E+00  0.2532E+02
   8.364  0.8702E+00  0.2533E+02
   8.374  0.8700E+00  0.2534E+02
   8.384  0.8701E+00  0.2535E+02
   8.394  0.8703E+00  0.2536E+02
   8.404  0.8708E+00  0.2537E+02
   8.414  0.8715E+00  0.2538E+02
   8.424  0.8725E+00  0.2539E+02
   8.434  0.8736E+00  0.2539E+02
   8.444  0.8750E+00  0.2540E+02
   8.454  0.8767E+00  0.2541E+02
   8.464  0.8786E+00  0.2542E+02
   8.474  0.8807E+00  0.2543E+02
   8.484  0.8831E+00  0.2544E+02
   8.494  0.8857E+00  0.2545E+02
   8.504  0.8886E+00  0.2546E+02
   8.514  0.8918E+00  0.2546E+02
   8.524  0.8952E+00  0.2547E+02
   8.534  0.8989E+00  0.2548E+02
   8.544  0.9028E+00  0.2549E+02
   8.554  0.9069E+00  0.2550E+02
   8.564  0.9114E+00  0.2551E+02
   8.574  0.9160E+00  0.2552E+02
   8.584  0.9210E+00  0.2553E+02
   8.594  0.9261E+00  0.2554E+02
   8.604  0.9315E+00  0.2555E+02
   8.614  0.9372E+00  0.2556E+02
   8.624  0.9431E+00  0.2557E+02
   8.634  0.9492E+00  0.2558E+02
   8.644  0.9555E+00  0.2558E+02
   8.654  0.9620E+00  0.2559E+02
   8.664  0.9688E+00  0.2560E+02
   8.674  0.9757E+00  0.2561E+02
   8.684  0.9829E+00  0.2562E+02
   8.694  0.9902E+00  0.2563E+02
   8.704  0.9977E+00  0.2564E+02
   8.714  0.1005E+01  0.2565E+02
   8.724  0.1013E+01  0.2566E+02
   8.734  0.1021E+01  0.2567E+02
   8.744  0.1029E+01  0.2568E+02
   8.754  0.1038E+01  0.2569E+02
   8.764  0.1046E+01  0.2570E+02
   8.774  0.1054E+01  0.2572E+02
   8.784  0.1063E+01  0.2573E+02
   8.794  0.1072E+01  0.2574E+02
   8.804  0.1080E+01  0.2575E+02
   8.814  0.1089E+01  0.2576E+02
   8.824  0.1098E+01  0.2577E+02
   8.834  0.1107E+01  0.2578E+02
   8.844  0.1116E+01  0.2579E+02
   8.854  0.1124E+01  0.2580E+02
   8.864  0.1133E+01  0.2581E+02
   8.874  0.1142E+01  0.2583E+02
   8.884  0.1151E+01  0.2584E+02
   8.894  0.1160E+01  0.2585E+02
   8.904  0.1168E+01  0.2586E+02
   8.914  0.1177E+01  0.2587E+02
   8.924  0.1185E+01  0.2588E+02
   8.934  0.1194E+01  0.2590E+02
   8.944  0.1202E+01  0.2591E+02
   8.954  0.1210E+01  0.2592E+02
   8.964  0.1218E+01  0.2593E+02
   8.974  0.1226E+01  0.2594E+02
   8.984  0.1233E+01  0.2596E+02
   8.994  0.1241E+01  0.2597E+02
   9.004  0.1248E+01  0.2598E+02
   9.014  0.1255E+01  0.2599E+02
   9.024  0.1262E+01  0.2601E+02
   9.034  0.1269E+01  0.2602E+02
   9.044  0.1275E+01  0.2603E+02
   9.054  0.1281E+01  0.2605E+02
   9.064  0.1287E+01  0.2606E+02
   9.074  0.1293E+01  0.2607E+02
   9.084  0.1298E+01  0.2608E+02
   9.094  0.1304E+01  0.2610E+02
   9.104  0.1308E+01  0.2611E+02
   9.114  0.1313E+01  0.2612E+02
   9.124  0.1317E+01  0.2614E+02
   9.134  0.1321E+01  0.2615E+02
   9.144  0.1325E+01  0.2616E+02
   9.154  0.1328E+01  0.2618E+02
   9.164  0.1331E+01  0.2619E+02
   9.174  0.1334E+01  0.2620E+02
   9.184  0.1337E+01  0.2622E+02
   9.194  0.1339E+01  0.2623E+02
   9.204  0.1341E+01  0.2624E+02
   9.214  0.1342E+01  0.2626E+02
   9.224  0.1344E+01  0.2627E+02
   9.234  0.1345E+01  0.2628E+02
   9.244  0.1345E+01  0.2630E+02
   9.254  0.1346E+01  0.2631E+02
   9.264  0.1346E+01  0.2632E+02
   9.274  0.1345E+01  0.2634E+02
   9.284  0.1345E+01  0.2635E+02
   9.294  0.1344E+01  0.2636E+02
   9.304  0.1343E+01  0.2638E+02
   9.314  0.1342E+01  0.2639E+02
   9.324  0.1340E+01  0.2640E+02
   9.334  0.1338E+01  0.2642E+02
   9.344  0.1336E+01  0.2643E+02
   9.354  0.1334E+01  0.2644E+02
   9.364  0.1331E+01  0.2646E+02
   9.374  0.1329E+01  0.2647E+02
   9.384  0.1326E+01  0.2648E+02
   9.394  0.1322E+01  0.2650E+02
   9.404  0.1319E+01  0.2651E+02
   9.414  0.1315E+01  0.2652E+02
   9.424  0.1311E+01  0.2654E+02
   9.434  0.1307E+01  0.2655E+02
   9.444  0.1303E+01  0.2656E+02
   9.454  0.1299E+01  0.2658E+02
   9.464  0.1294E+01  0.2659E+02
   9.474  0.1290E+01  0.2660E+02
   9.484  0.1285E+01  0.2661E+02
   9.494  0.1280E+01  0.2663E+02
   9.504  0.1275E+01  0.2664E+02
   9.514  0.1270E+01  0.2665E+02
   9.524  0.1265E+01  0.2667E+02
   9.534  0.1259E+01  0.2668E+02
   9.544  0.1254E+01  0.2669E+02
   9.554  0.1248E+01  0.2670E+02
   9.564  0.1243E+01  0.2672E+02
   9.574  0.1237E+01  0.2673E+02
   9.584  0.1231E+01  0.2674E+02
   9.594  0.1225E+01  0.2675E+02
   9.604  0.1220E+01  0.2676E+02
   9.614  0.1214E+01  0.2678E+02
   9.624  0.1208E+01  0.2679E+02
   9.634  0.1202E+01  0.2680E+02
   9.644  0.1196E+01  0.2681E+02
   9.654  0.1190E+01  0.2682E+02
   9.664  0.1184E+01  0.2684E+02
   9.674  0.1178E+01  0.2685E+02
   9.684  0.1171E+01  0.2686E+02
   9.694  0.1165E+01  0.2687E+02
   9.704  0.1159E+01  0.2688E+02
   9.714  0.1153E+01  0.2690E+02
   9.724  0.1147E+01  0.2691E+02
   9.734  0.1141E+01  0.2692E+02
   9.744  0.1135E+01  0.2693E+02
   9.754  0.1129E+01  0.2694E+02
   9.764  0.1123E+01  0.2695E+02
   9.774  0.1117E+01  0.2696E+02
   9.784  0.1111E+01  0.2697E+02
   9.794  0.1105E+01  0.2699E+02
   9.804  0.1099E+01  0.2700E+02
   9.814  0.1093E+01  0.2701E+02
   9.824  0.1087E+01  0.2702E+02
   9.834  0.1082E+01  0.2703E+02
   9.844  0.1076E+01  0.2704E+02
   9.854  0.1070E+01  0.2705E+02
   9.864  0.1064E+01  0.2706E+02
   9.874  0.1059E+01  0.2707E+02
   9.884  0.1053E+01  0.2708E+02
   9.894  0.1047E+01  0.2709E+02
   9.904  0.1042E+01  0.2710E+02
   9.914  0.1036E+01  0.2711E+02
   9.924  0.1031E+01  0.2712E+02
   9.934  0.1025E+01  0.2713E+02
   9.944  0.1020E+01  0.2714E+02
   9.954  0.1014E+01  0.2715E+02
   9.964  0.1009E+01  0.2716E+02
   9.974  0.1004E+01  0.2717E+02
   9.984  0.9986E+00  0.2718E+02
   9.994  0.9935E+00  0.2719E+02
  10.004  0.9884E+00  0.2720E+02
  10.014  0.9833E+00  0.2721E+02
  10.024  0.9783E+00  0.2722E+02
  10.034  0.9734E+00  0.2723E+02
  10.044  0.9685E+00  0.2724E+02
  10.054  0.9638E+00  0.2725E+02
  10.064  0.9590E+00  0.2726E+02
  10.074  0.9544E+00  0.2727E+02
  10.084  0.9498E+00  0.2728E+02
  10.094  0.9453E+00  0.2729E+02
  10.104  0.9408E+00  0.2730E+02
  10.114  0.9365E+00  0.2731E+02
  10.124  0.9322E+00  0.2732E+02
  10.134  0.9281E+00  0.2733E+02
  10.144  0.9240E+00  0.2734E+02
  10.154  0.9200E+00  0.2735E+02
  10.164  0.9161E+00  0.2736E+02
  10.174  0.9123E+00  0.2736E+02
  10.184  0.9086E+00  0.2737E+02
  10.194  0.9050E+00  0.2738E+02
  10.204  0.9015E+00  0.2739E+02
  10.214  0.8982E+00  0.2740E+02
  10.224  0.8950E+00  0.2741E+02
  10.234  0.8918E+00  0.2742E+02
  10.244  0.8889E+00  0.2743E+02
  10.254  0.8860E+00  0.2744E+02
  10.264  0.8833E+00  0.2745E+02
  10.274  0.8807E+00  0.2745E+02
  10.284  0.8783E+00  0.2746E+02
  10.294  0.8760E+00  0.2747E+02
  10.304  0.8739E+00  0.2748E+02
  10.314  0.8719E+00  0.2749E+02
  10.324  0.8701E+00  0.2750E+02
  10.334  0.8685E+00  0.2751E+02
  10.344  0.8670E+00  0.2752E+02
  10.354  0.8657E+00  0.2752E+02
  10.364  0.8646E+00  0.2753E+02
  10.374  0.8636E+00  0.2754E+02
  10.384  0.8628E+00  0.2755E+02
  10.394  0.8623E+00  0.2756E+02
  10.404  0.8619E+00  0.2757E+02
  10.414  0.8617E+00  0.2758E+02
  10.424  0.8616E+00  0.2758E+02
  10.434  0.8618E+00  0.2759E+02
  10.444  0.8622E+00  0.2760E+02
  10.454  0.8628E+00  0.2761E+02
  10.464  0.8636E+00  0.2762E+02
  10.474  0.8646E+00  0.2763E+02
  10.484  0.8657E+00  0.2764E+02
  10.494  0.8671E+00  0.2764E+02
  10.504  0.8687E+00  0.2765E+02
  10.514  0.8705E+00  0.2766E+02
  10.524  0.8725E+00  0.2767E+02
  10.534  0.8747E+00  0.2768E+02
  10.544  0.8771E+00  0.2769E+02
  10.554  0.8798E+00  0.2770E+02
  10.564  0.8826E+00  0.2771E+02
  10.574  0.8856E+00  0.2771E+02
  10.584  0.8887E+00  0.2772E+02
  10.594  0.8921E+00  0.2773E+02
  10.604  0.8957E+00  0.2774E+02
  10.614  0.8995E+00  0.2775E+02
  10.624  0.9034E+00  0.2776E+02
  10.634  0.9075E+00  0.2777E+02
  10.644  0.9118E+00  0.2778E+02
  10.654  0.9162E+00  0.2779E+02
  10.664  0.9208E+00  0.2780E+02
  10.674  0.9255E+00  0.2781E+02
  10.684  0.9304E+00  0.2781E+02
  10.694  0.9354E+00  0.2782E+02
  10.704  0.9406E+00  0.2783E+02
  10.714  0.9458E+00  0.2784E+02
  10.724  0.9512E+00  0.2785E+02
  10.734  0.9567E+00  0.2786E+02
  10.744  0.9623E+00  0.2787E+02
  10.754  0.9679E+00  0.2788E+02
  10.764  0.9737E+00  0.2789E+02
  10.774  0.9795E+00  0.2790E+02
  10.784  0.9853E+00  0.2791E+02
  10.794  0.9912E+00  0.2792E+02
  10.804  0.9972E+00  0.2793E+02
  10.814  0.1003E+01  0.2794E+02
  10.824  0.1009E+01  0.2795E+02
  10.834  0.1015E+01  0.2796E+02
  10.844  0.1021E+01  0.2797E+02
  10.854  0.1027E+01  0.2798E+02
  10.864  0.1033E+01  0.2799E+02
  10.874  0.1039E+01  0.2800E+02
  10.884  0.1045E+01  0.2801E+02
  10.894  0.1050E+01  0.2802E+02
  10.904  0.1056E+01  0.2803E+02
  10.914  0.1062E+01  0.2804E+02
  10.924  0.1067E+01  0.2805E+02
  10.934  0.1073E+01  0.2807E+02
  10.944  0.1078E+01  0.2808E+02
  10.954  0.1083E+01  0.2809E+02
  10.964  0.1088E+01  0.2810E+02
  10.974  0.1093E+01  0.2811E+02
  10.984  0.1098E+01  0.2812E+02
  10.994  0.1102E+01  0.2813E+02
  11.004  0.1107E+01  0.2814E+02
  11.014  0.1111E+01  0.2815E+02
  11.024  0.1115E+01  0.2816E+02
  11.034  0.1119E+01  0.2818E+02
  11.044  0.1122E+01  0.2819E+02
  11.054  0.1126E+01  0.2820E+02
  11.064  0.1129E+01  0.2821E+02
  11.074  0.1132E+01  0.2822E+02
  11.084  0.1134E+01  0.2823E+02
  11.094  0.1137E+01  0.2824E+02
  11.104  0.1139E+01  0.2825E+02
  11.114  0.1141E+01  0.2827E+02
  11.124  0.1143E+01  0.2828E+02
  11.134  0.1144E+01  0.2829E+02
  11.144  0.1145E+01  0.2830E+02
  11.154  0.1146E+01  0.2831E+02
  11.164  0.1147E+01  0.2832E+02
  11.174  0.1147E+01  0.2833E+02
  11.184  0.1147E+01  0.2835E+02
  11.194  0.1147E+01  0.2836E+02
  11.204  0.1147E+01  0.2837E+02
  11.214  0.1146E+01  0.2838E+02
  11.224  0.1145E+01  0.2839E+02
  11.234  0.1144E+01  0.2840E+02
  11.244  0.1143E+01  0.2842E+02
  11.254  0.1141E+01  0.2843E+02
  11.264  0.1139E+01  0.2844E+02
  11.274  0.1137E+01  0.2845E+02
  11.284  0.1134E+01  0.2846E+02
  11.294  0.1132E+01  0.2847E+02
  11.304  0.1129E+01  0.2848E+02
  11.314  0.1126E+01  0.2849E+02
  11.324  0.1122E+01  0.2851E+02
  11.334  0.1119E+01  0.2852E+02
  11.344  0.1115E+01  0.2853E+02
  11.354  0.1111E+01  0.2854E+02
  11.364  0.1107E+01  0.2855E+02
  11.374  0.1103E+01  0.2856E+02
  11.384  0.1098E+01  0.2857E+02
  11.394  0.1094E+01  0.2858E+02
  11.404  0.1089E+01  0.2859E+02
  11.414  0.1084E+01  0.2860E+02
  11.424  0.1079E+01  0.2862E+02
  11.434  0.1074E+01  0.2863E+02
  11.444  0.1068E+01  0.2864E+02
  11.454  0.1063E+01  0.2865E+02
  11.464  0.1057E+01  0.2866E+02
  11.474  0.1051E+01  0.2867E+02
  11.484  0.1046E+01  0.2868E+02
  11.494  0.1040E+01  0.2869E+02
  11.504  0.1034E+01  0.2870E+02
  11.514  0.1028E+01  0.2871E+02
  11.524  0.1022E+01  0.2872E+02
  11.534  0.1016E+01  0.2873E+02
  11.544  0.1010E+01  0.2874E+02
  11.554  0.1004E+01  0.2875E+02
  11.564  0.9977E+00  0.2876E+02
  11.574  0.9916E+00  0.2877E+02
  11.584  0.9855E+00  0.2878E+02
  11.594  0.9794E+00  0.2879E+02
  11.604  0.9733E+00  0.2880E+02
  11.614  0.9673E+00  0.2881E+02
  11.624  0.9613E+00  0.2882E+02
  11.634  0.9553E+00  0.2883E+02
  11.644  0.9495E+00  0.2884E+02
  11.654  0.9436E+00  0.2885E+02
  11.664  0.9379E+00  0.2886E+02
  11.674  0.9322E+00  0.2887E+02
  11.684  0.9266E+00  0.2888E+02
  11.694  0.9211E+00  0.2889E+02
  11.704  0.9157E+00  0.2889E+02
  11.714  0.9105E+00  0.2890E+02
  11.724  0.9053E+00  0.2891E+02
  11.734  0.9002E+00  0.2892E+02
  11.744  0.8953E+00  0.2893E+02
  11.754  0.8905E+00  0.2894E+02
  11.764  0.8859E+00  0.2895E+02
  11.774  0.8813E+00  0.2896E+02
  11.784  0.8770E+00  0.2897E+02
  11.794  0.8728E+00  0.2897E+02
  11.804  0.8687E+00  0.2898E+02
  11.814  0.8648E+00  0.2899E+02
  11.824  0.8611E+00  0.2900E+02
  11.834  0.8575E+00  0.2901E+02
  11.844  0.8541E+00  0.2902E+02
  11.854  0.8509E+00  0.2903E+02
  11.864  0.8479E+00  0.2903E+02
  11.874  0.8451E+00  0.2904E+02
  11.884  0.8424E+00  0.2905E+02
  11.894  0.8400E+00  0.2906E+02
  11.904  0.8377E+00  0.2907E+02
  11.914  0.8356E+00  0.2908E+02
  11.924  0.8337E+00  0.2908E+02
  11.934  0.8321E+00  0.2909E+02
  11.944  0.8306E+00  0.2910E+02
  11.954  0.8294E+00  0.2911E+02
  11.964  0.8283E+00  0.2912E+02
  11.974  0.8275E+00  0.2913E+02
  11.984  0.8268E+00  0.2913E+02
  11.994  0.8264E+00  0.2914E+02
  12.004  0.8262E+00  0.2915E+02
  12.014  0.8262E+00  0.2916E+02
  12.024  0.8264E+00  0.2917E+02
  12.034  0.8268E+00  0.2918E+02
  12.044  0.8274E+00  0.2918E+02
  12.054  0.8283E+00  0.2919E+02
  12.064  0.8294E+00  0.2920E+02
  12.074  0.8306E+00  0.2921E+02
  12.084  0.8321E+00  0.2922E+02
  12.094  0.8338E+00  0.2923E+02
  12.104  0.8357E+00  0.2923E+02
  12.114  0.8378E+00  0.2924E+02
  12.124  0.8401E+00  0.2925E+02
  12.134  0.8426E+00  0.2926E+02
  12.144  0.8454E+00  0.2927E+02
  12.154  0.8483E+00  0.2928E+02
  12.164  0.8514E+00  0.2928E+02
  12.174  0.8547E+00  0.2929E+02
  12.184  0.8582E+00  0.2930E+02
  12.194  0.8619E+00  0.2931E+02
  12.204  0.8657E+00  0.2932E+02
  12.214  0.8698E+00  0.2933E+02
  12.224  0.8740E+00  0.2934E+02
  12.234  0.8784E+00  0.2935E+02
  12.244  0.8829E+00  0.2935E+02
  12.254  0.8876E+00  0.2936E+02
  12.264  0.8925E+00  0.2937E+02
  12.274  0.8975E+00  0.2938E+02
  12.284  0.9027E+00  0.2939E+02
  12.294  0.9080E+00  0.2940E+02
  12.304  0.9134E+00  0.2941E+02
  12.314  0.9189E+00  0.2942E+02
  12.324  0.9246E+00  0.2943E+02
  12.334  0.9304E+00  0.2944E+02
  12.344  0.9363E+00  0.2945E+02
  12.354  0.9422E+00  0.2945E+02
  12.364  0.9483E+00  0.2946E+02
  12.374  0.9544E+00  0.2947E+02
  12.384  0.9606E+00  0.2948E+02
  12.394  0.9669E+00  0.2949E+02
  12.404  0.9732E+00  0.2950E+02
  12.414  0.9796E+00  0.2951E+02
  12.424  0.9860E+00  0.2952E+02
  12.434  0.9925E+00  0.2953E+02
  12.444  0.9989E+00  0.2954E+02
  12.454  0.1005E+01  0.2955E+02
  12.464  0.1012E+01  0.2956E+02
  12.474  0.1018E+01  0.2957E+02
  12.484  0.1025E+01  0.2958E+02
  12.494  0.1031E+01  0.2959E+02
  12.504  0.1038E+01  0.2960E+02
  12.514  0.1044E+01  0.2961E+02
  12.524  0.1050E+01  0.2962E+02
  12.534  0.1056E+01  0.2964E+02
  12.544  0.1062E+01  0.2965E+02
  12.554  0.1069E+01  0.2966E+02
  12.564  0.1074E+01  0.2967E+02
  12.574  0.1080E+01  0.2968E+02
  12.584  0.1086E+01  0.2969E+02
  12.594  0.1092E+01  0.2970E+02
  12.604  0.1097E+01  0.2971E+02
  12.614  0.1103E+01  0.2972E+02
  12.624  0.1108E+01  0.2973E+02
  12.634  0.1113E+01  0.2974E+02
  12.644  0.1118E+01  0.2976E+02
  12.654  0.1123E+01  0.2977E+02
  12.664  0.1127E+01  0.2978E+02
  12.674  0.1131E+01  0.2979E+02
  12.684  0.1136E+01  0.2980E+02
  12.694  0.1140E+01  0.2981E+02
  12.704  0.1143E+01  0.2982E+02
  12.714  0.1147E+01  0.2983E+02
  12.724  0.1150E+01  0.2985E+02
  12.734  0.1154E+01  0.2986E+02
  12.744  0.1157E+01  0.2987E+02
  12.754  0.1159E+01  0.2988E+02
  12.764  0.1162E+01  0.2989E+02
  12.774  0.1164E+01  0.2990E+02
  12.784  0.1166E+01  0.2992E+02
  12.794  0.1168E+01  0.2993E+02
  12.804  0.1170E+01  0.2994E+02
  12.814  0.1171E+01  0.2995E+02
  12.824  0.1172E+01  0.2996E+02
  12.834  0.1173E+01  0.2997E+02
  12.844  0.1174E+01  0.2999E+02
  12.854  0.1174E+01  0.3000E+02
  12.864  0.1174E+01  0.3001E+02
  12.874  0.1174E+01  0.3002E+02
  12.884  0.1174E+01  0.3003E+02
  12.894  0.1174E+01  0.3004E+02
  12.904  0.1173E+01  0.3006E+02
  12.914  0.1172E+01  0.3007E+02
  12.924  0.1171E+01  0.3008E+02
  12.934  0.1170E+01  0.3009E+02
  12.944  0.1168E+01  0.3010E+02
  12.954  0.1166E+01  0.3011E+02
  12.964  0.1165E+01  0.3013E+02
  12.974  0.1162E+01  0.3014E+02
  12.984  0.1160E+01  0.3015E+02
  12.994  0.1158E+01  0.3016E+02
  13.004  0.1155E+01  0.3017E+02
  13.014  0.1152E+01  0.3018E+02
  13.024  0.1150E+01  0.3020E+02
  13.034  0.1147E+01  0.3021E+02
  13.044  0.1143E+01  0.3022E+02
  13.054  0.1140E+01  0.3023E+02
  13.064  0.1137E+01  0.3024E+02
  13.074  0.1133E+01  0.3025E+02
  13.084  0.1130E+01  0.3026E+02
  13.094  0.1126E+01  0.3028E+02
  13.104  0.1122E+01  0.3029E+02
  13.114  0.1118E+01  0.3030E+02
  13.124  0.1115E+01  0.3031E+02
  13.134  0.1111E+01  0.3032E+02
  13.144  0.1107E+01  0.3033E+02
  13.154  0.1103E+01  0.3034E+02
  13.164  0.1099E+01  0.3035E+02
  13.174  0.1095E+01  0.3036E+02
  13.184  0.1091E+01  0.3038E+02
  13.194  0.1087E+01  0.3039E+02
  13.204  0.1083E+01  0.3040E+02
  13.214  0.1079E+01  0.3041E+02
  13.224  0.1075E+01  0.3042E+02
  13.234  0.1071E+01  0.3043E+02
  13.244  0.1068E+01  0.3044E+02
  13.254  0.1064E+01  0.3045E+02
  13.264  0.1061E+01  0.3046E+02
  13.274  0.1057E+01  0.3047E+02
  13.284  0.1054E+01  0.3048E+02
  13.294  0.1051E+01  0.3049E+02
  13.304  0.1047E+01  0.3050E+02
  13.314  0.1044E+01  0.3051E+02
  13.324  0.1042E+01  0.3052E+02
  13.334  0.1039E+01  0.3053E+02
  13.344  0.1036E+01  0.3054E+02
  13.354  0.1034E+01  0.3056E+02
  13.364  0.1032E+01  0.3057E+02
  13.374  0.1030E+01  0.3058E+02
  13.384  0.1028E+01  0.3059E+02
  13.394  0.1026E+01  0.3060E+02
  13.404  0.1025E+01  0.3061E+02
  13.414  0.1023E+01  0.3062E+02
  13.424  0.1022E+01  0.3063E+02
  13.434  0.1021E+01  0.3064E+02
  13.444  0.1021E+01  0.3065E+02
  13.454  0.1020E+01  0.3066E+02
  13.464  0.1020E+01  0.3067E+02
  13.474  0.1020E+01  0.3068E+02
  13.484  0.1020E+01  0.3069E+02
  13.494  0.1020E+01  0.3070E+02
  13.504  0.1021E+01  0.3071E+02
  13.514  0.1022E+01  0.3072E+02
  13.524  0.1023E+01  0.3073E+02
  13.534  0.1024E+01  0.3074E+02
  13.544  0.1025E+01  0.3075E+02
  13.554  0.1027E+01  0.3076E+02
  13.564  0.1029E+01  0.3077E+02
  13.574  0.1031E+01  0.3078E+02
  13.584  0.1033E+01  0.3079E+02
  13.594  0.1036E+01  0.3080E+02
  13.604  0.1038E+01  0.3081E+02
  13.614  0.1041E+01  0.3082E+02
  13.624  0.1044E+01  0.3083E+02
  13.634  0.1047E+01  0.3084E+02
  13.644  0.1051E+01  0.3085E+02
  13.654  0.1054E+01  0.3086E+02
  13.664  0.1058E+01  0.3087E+02
  13.674  0.1062E+01  0.3088E+02
  13.684  0.1066E+01  0.3090E+02
  13.694  0.1070E+01  0.3091E+02
  13.704  0.1075E+01  0.3092E+02
  13.714  0.1079E+01  0.3093E+02
  13.724  0.1084E+01  0.3094E+02
  13.734  0.1089E+01  0.3095E+02
  13.744  0.1093E+01  0.3096E+02
  13.754  0.1098E+01  0.3097E+02
  13.764  0.1103E+01  0.3098E+02
  13.774  0.1109E+01  0.3099E+02
  13.784  0.1114E+01  0.3100E+02
  13.794  0.1119E+01  0.3102E+02
  13.804  0.1124E+01  0.3103E+02
  13.814  0.1130E+01  0.3104E+02
  13.824  0.1135E+01  0.3105E+02
  13.834  0.1141E+01  0.3106E+02
  13.844  0.1146E+01  0.3107E+02
  13.854  0.1152E+01  0.3108E+02
  13.864  0.1157E+01  0.3110E+02
  13.874  0.1163E+01  0.3111E+02
  13.884  0.1168E+01  0.3112E+02
  13.894  0.1174E+01  0.3113E+02
  13.904  0.1179E+01  0.3114E+02
  13.914  0.1185E+01  0.3115E+02
  13.924  0.1190E+01  0.3117E+02
  13.934  0.1196E+01  0.3118E+02
  13.944  0.1201E+01  0.3119E+02
  13.954  0.1206E+01  0.3120E+02
  13.964  0.1212E+01  0.3121E+02
  13.974  0.1217E+01  0.3123E+02
  13.984  0.1222E+01  0.3124E+02
  13.994  0.1227E+01  0.3125E+02
  14.004  0.1232E+01  0.3126E+02
  14.014  0.1237E+01  0.3128E+02
  14.024  0.1242E+01  0.3129E+02
  14.034  0.1247E+01  0.3130E+02
  14.044  0.1251E+01  0.3131E+02
  14.054  0.1256E+01  0.3133E+02
  14.064  0.1260E+01  0.3134E+02
  14.074  0.1265E+01  0.3135E+02
  14.084  0.1269E+01  0.3136E+02
  14.094  0.1274E+01  0.3138E+02
  14.104  0.1278E+01  0.3139E+02
  14.114  0.1282E+01  0.3140E+02
  14.124  0.1286E+01  0.3141E+02
  14.134  0.1290E+01  0.3143E+02
  14.144  0.1294E+01  0.3144E+02
  14.154  0.1298E+01  0.3145E+02
  14.164  0.1301E+01  0.3147E+02
  14.174  0.1305E+01  0.3148E+02
  14.184  0.1309E+01  0.3149E+02
  14.194  0.1312E+01  0.3151E+02
  14.204  0.1316E+01  0.3152E+02
  14.214  0.1319E+01  0.3153E+02
  14.224  0.1323E+01  0.3155E+02
  14.234  0.1326E+01  0.3156E+02
  14.244  0.1329E+01  0.3157E+02
  14.254  0.1333E+01  0.3159E+02
  14.264  0.1336E+01  0.3160E+02
  14.274  0.1339E+01  0.3161E+02
  14.284  0.1342E+01  0.3163E+02
  14.294  0.1346E+01  0.3164E+02
  14.304  0.1349E+01  0.3165E+02
  14.314  0.1352E+01  0.3167E+02
  14.324  0.1355E+01  0.3168E+02
  14.334  0.1358E+01  0.3169E+02
  14.344  0.1362E+01  0.3171E+02
  14.354  0.1365E+01  0.3172E+02
  14.364  0.1368E+01  0.3173E+02
  14.374  0.1371E+01  0.3175E+02
  14.384  0.1375E+01  0.3176E+02
  14.394  0.1378E+01  0.3178E+02
  14.404  0.1381E+01  0.3179E+02
  14.414  0.1385E+01  0.3180E+02
  14.424  0.1388E+01  0.3182E+02
  14.434  0.1392E+01  0.3183E+02
  14.444  0.1395E+01  0.3184E+02
  14.454  0.1399E+01  0.3186E+02
  14.464  0.1402E+01  0.3187E+02
  14.474  0.1406E+01  0.3189E+02
  14.484  0.1410E+01  0.3190E+02
  14.494  0.1413E+01  0.3192E+02
  14.504  0.1417E+01  0.3193E+02
  14.514  0.1421E+01  0.3194E+02
  14.524  0.1425E+01  0.3196E+02
  14.534  0.1428E+01  0.3197E+02
  14.544  0.1432E+01  0.3199E+02
  14.554  0.1436E+01  0.3200E+02
  14.564  0.1440E+01  0.3202E+02
  14.574  0.1444E+01  0.3203E+02
  14.584  0.1448E+01  0.3204E+02
  14.594  0.1452E+01  0.3206E+02
  14.604  0.1456E+01  0.3207E+02
  14.614  0.1460E+01  0.3209E+02
  14.624  0.1464E+01  0.3210E+02
  14.634  0.1468E+01  0.3212E+02
  14.644  0.1472E+01  0.3213E+02
  14.654  0.1476E+01  0.3215E+02
  14.664  0.1480E+01  0.3216E+02
  14.674  0.1484E+01  0.3218E+02
  14.684  0.1488E+01  0.3219E+02
  14.694  0.1492E+01  0.3221E+02
  14.704  0.1496E+01  0.3222E+02
  14.714  0.1500E+01  0.3224E+02
  14.724  0.1503E+01  0.3225E+02
  14.734  0.1507E+01  0.3227E+02
  14.744  0.1510E+01  0.3228E+02
  14.754  0.1514E+01  0.3230E+02
  14.764  0.1517E+01  0.3231E+02
  14.774  0.1520E+01  0.3233E+02
  14.784  0.1524E+01  0.3234E+02
  14.794  0.1527E+01  0.3236E+02
  14.804  0.1530E+01  0.3237E+02
  14.814  0.1532E+01  0.3239E+02
  14.824  0.1535E+01  0.3240E+02
  14.834  0.1537E+01  0.3242E+02
  14.844  0.1540E+01  0.3243E+02
  14.854  0.1542E+01  0.3245E+02
  14.864  0.1544E+01  0.3246E+02
  14.874  0.1546E+01  0.3248E+02
  14.884  0.1548E+01  0.3250E+02
  14.894  0.1549E+01  0.3251E+02
  14.904  0.1551E+01  0.3253E+02
  14.914  0.1552E+01  0.3254E+02
  14.924  0.1553E+01  0.3256E+02
  14.934  0.1554E+01  0.3257E+02
  14.944  0.1554E+01  0.3259E+02
  14.954  0.1555E+01  0.3260E+02
  14.964  0.1555E+01  0.3262E+02
  14.974  0.1555E+01  0.3264E+02
  14.984  0.1555E+01  0.3265E+02
  14.994  0.1554E+01  0.3267E+02
  15.004  0.1554E+01  0.3268E+02
  15.014  0.1553E+01  0.3270E+02
  15.024  0.1552E+01  0.3271E+02
  15.034  0.1551E+01  0.3273E+02
  15.044  0.1549E+01  0.3274E+02
  15.054  0.1548E+01  0.3276E+02
  15.064  0.1546E+01  0.3278E+02
  15.074  0.1544E+01  0.3279E+02
  15.084  0.1542E+01  0.3281E+02
  15.094  0.1539E+01  0.3282E+02
  15.104  0.1537E+01  0.3284E+02
  15.114  0.1534E+01  0.3285E+02
  15.124  0.1531E+01  0.3287E+02
  15.134  0.1528E+01  0.3288E+02
  15.144  0.1525E+01  0.3290E+02
  15.154  0.1521E+01  0.3291E+02
  15.164  0.1518E+01  0.3293E+02
  15.174  0.1514E+01  0.3294E+02
  15.184  0.1510E+01  0.3296E+02
  15.194  0.1506E+01  0.3297E+02
  15.204  0.1501E+01  0.3299E+02
  15.214  0.1497E+01  0.3300E+02
  15.224  0.1492E+01  0.3302E+02
  15.234  0.1488E+01  0.3303E+02
  15.244  0.1483E+01  0.3305E+02
  15.254  0.1478E+01  0.3306E+02
  15.264  0.1473E+01  0.3308E+02
  15.274  0.1468E+01  0.3309E+02
  15.284  0.1462E+01  0.3311E+02
  15.294  0.1457E+01  0.3312E+02
  15.304  0.1451E+01  0.3314E+02
  15.314  0.1446E+01  0.3315E+02
  15.324  0.1440E+01  0.3316E+02
  15.334  0.1434E+01  0.3318E+02
  15.344  0.1429E+01  0.3319E+02
  15.354  0.1423E+01  0.3321E+02
  15.364  0.1417E+01  0.3322E+02
  15.374  0.1411E+01  0.3324E+02
  15.384  0.1405E+01  0.3325E+02
  15.394  0.1399E+01  0.3326E+02
  15.404  0.1393E+01  0.3328E+02
  15.414  0.1387E+01  0.3329E+02
  15.424  0.1380E+01  0.3331E+02
  15.434  0.1374E+01  0.3332E+02
  15.444  0.1368E+01  0.3333E+02
  15.454  0.1362E+01  0.3335E+02
  15.464  0.1356E+01  0.3336E+02
  15.474  0.1350E+01  0.3337E+02
  15.484  0.1343E+01  0.3339E+02
  15.494  0.1337E+01  0.3340E+02
  15.504  0.1331E+01  0.3341E+02
  15.514  0.1325E+01  0.3343E+02
  15.524  0.1319E+01  0.3344E+02
  15.534  0.1313E+01  0.3345E+02
  15.544  0.1307E+01  0.3347E+02
  15.554  0.1301E+01  0.3348E+02
  15.564  0.1295E+01  0.3349E+02
  15.574  0.1289E+01  0.3351E+02
  15.584  0.1283E+01  0.3352E+02
  15.594  0.1277E+01  0.3353E+02
  15.604  0.1271E+01  0.3354E+02
  15.614  0.1266E+01  0.3356E+02
  15.624  0.1260E+01  0.3357E+02
  15.634  0.1255E+01  0.3358E+02
  15.644  0.1249E+01  0.3359E+02
  15.654  0.1244E+01  0.3361E+02
  15.664  0.1239E+01  0.3362E+02
  15.674  0.1234E+01  0.3363E+02
  15.684  0.1228E+01  0.3364E+02
  15.694  0.1223E+01  0.3366E+02
  15.704  0.1219E+01  0.3367E+02
  15.714  0.1214E+01  0.3368E+02
  15.724  0.1209E+01  0.3369E+02
  15.734  0.1205E+01  0.3370E+02
  15.744  0.1200E+01  0.3372E+02
  15.754  0.1196E+01  0.3373E+02
  15.764  0.1192E+01  0.3374E+02
  15.774  0.1188E+01  0.3375E+02
  15.784  0.1184E+01  0.3376E+02
  15.794  0.1180E+01  0.3378E+02
  15.804  0.1177E+01  0.3379E+02
  15.814  0.1173E+01  0.3380E+02
  15.824  0.1170E+01  0.3381E+02
  15.834  0.1167E+01  0.3382E+02
  15.844  0.1164E+01  0.3383E+02
  15.854  0.1161E+01  0.3385E+02
  15.864  0.1159E+01  0.3386E+02
  15.874  0.1156E+01  0.3387E+02
  15.884  0.1154E+01  0.3388E+02
  15.894  0.1152E+01  0.3389E+02
  15.904  0.1150E+01  0.3390E+02
  15.914  0.1149E+01  0.3391E+02
  15.924  0.1147E+01  0.3393E+02
  15.934  0.1146E+01  0.3394E+02
  15.944  0.1145E+01  0.3395E+02
  15.954  0.1144E+01  0.3396E+02
  15.964  0.1143E+01  0.3397E+02
  15.974  0.1143E+01  0.3398E+02
  15.984  0.1142E+01  0.3400E+02
  15.994  0.1142E+01  0.3401E+02
  16.004  0.1143E+01  0.3402E+02
  16.014  0.1143E+01  0.3403E+02
  16.024  0.1144E+01  0.3404E+02
  16.034  0.1144E+01  0.3405E+02
  16.044  0.1146E+01  0.3406E+02
  16.054  0.1147E+01  0.3408E+02
  16.064  0.1148E+01  0.3409E+02
  16.074  0.1150E+01  0.3410E+02
  16.084  0.1152E+01  0.3411E+02
  16.094  0.1154E+01  0.3412E+02
  16.104  0.1157E+01  0.3413E+02
  16.114  0.1159E+01  0.3414E+02
  16.124  0.1162E+01  0.3416E+02
  16.134  0.1165E+01  0.3417E+02
  16.144  0.1168E+01  0.3418E+02
  16.154  0.1172E+01  0.3419E+02
  16.164  0.1175E+01  0.3420E+02
  16.174  0.1179E+01  0.3421E+02
  16.184  0.1183E+01  0.3423E+02
  16.194  0.1188E+01  0.3424E+02
  16.204  0.1192E+01  0.3425E+02
  16.214  0.1197E+01  0.3426E+02
  16.224  0.1201E+01  0.3427E+02
  16.234  0.1206E+01  0.3429E+02
  16.244  0.1212E+01  0.3430E+02
  16.254  0.1217E+01  0.3431E+02
  16.264  0.1222E+01  0.3432E+02
  16.274  0.1228E+01  0.3433E+02
  16.284  0.1234E+01  0.3435E+02
  16.294  0.1240E+01  0.3436E+02
  16.304  0.1245E+01  0.3437E+02
  16.314  0.1252E+01  0.3438E+02
  16.324  0.1258E+01  0.3440E+02
  16.334  0.1264E+01  0.3441E+02
  16.344  0.1270E+01  0.3442E+02
  16.354  0.1277E+01  0.3444E+02
  16.364  0.1283E+01  0.3445E+02
  16.374  0.1290E+01  0.3446E+02
  16.384  0.1297E+01  0.3447E+02
  16.394  0.1303E+01  0.3449E+02
  16.404  0.1310E+01  0.3450E+02
  16.414  0.1317E+01  0.3451E+02
  16.424  0.1323E+01  0.3453E+02
  16.434  0.1330E+01  0.3454E+02
  16.444  0.1337E+01  0.3455E+02
  16.454  0.1343E+01  0.3457E+02
  16.464  0.1350E+01  0.3458E+02
  16.474  0.1356E+01  0.3459E+02
  16.484  0.1363E+01  0.3461E+02
  16.494  0.1369E+01  0.3462E+02
  16.504  0.1375E+01  0.3463E+02
  16.514  0.1382E+01  0.3465E+02
  16.524  0.1388E+01  0.3466E+02
  16.534  0.1394E+01  0.3468E+02
  16.544  0.1400E+01  0.3469E+02
  16.554  0.1405E+01  0.3470E+02
  16.564  0.1411E+01  0.3472E+02
  16.574  0.1416E+01  0.3473E+02
  16.584  0.1422E+01  0.3475E+02
  16.594  0.1427E+01  0.3476E+02
  16.604  0.1432E+01  0.3478E+02
  16.614  0.1436E+01  0.3479E+02
  16.624  0.1441E+01  0.3480E+02
  16.634  0.1445E+01  0.3482E+02
  16.644  0.1449E+01  0.3483E+02
  16.654  0.1453E+01  0.3485E+02
  16.664  0.1457E+01  0.3486E+02
  16.674  0.1460E+01  0.3488E+02
  16.684  0.1464E+01  0.3489E+02
  16.694  0.1467E+01  0.3491E+02
  16.704  0.1470E+01  0.3492E+02
  16.714  0.1472E+01  0.3494E+02
  16.724  0.1475E+01  0.3495E+02
  16.734  0.1477E+01  0.3497E+02
  16.744  0.1478E+01  0.3498E+02
  16.754  0.1480E+01  0.3499E+02
  16.764  0.1482E+01  0.3501E+02
  16.774  0.1483E+01  0.3502E+02
  16.784  0.1484E+01  0.3504E+02
  16.794  0.1484E+01  0.3505E+02
  16.804  0.1485E+01  0.3507E+02
  16.814  0.1485E+01  0.3508E+02
  16.824  0.1485E+01  0.3510E+02
  16.834  0.1485E+01  0.3511E+02
  16.844  0.1484E+01  0.3513E+02
  16.854  0.1483E+01  0.3514E+02
  16.864  0.1483E+01  0.3516E+02
  16.874  0.1481E+01  0.3517E+02
  16.884  0.1480E+01  0.3519E+02
  16.894  0.1479E+01  0.3520E+02
  16.904  0.1477E+01  0.3522E+02
  16.914  0.1475E+01  0.3523E+02
  16.924  0.1473E+01  0.3525E+02
  16.934  0.1471E+01  0.3526E+02
  16.944  0.1468E+01  0.3528E+02
  16.954  0.1466E+01  0.3529E+02
  16.964  0.1463E+01  0.3531E+02
  16.974  0.1460E+01  0.3532E+02
  16.984  0.1457E+01  0.3533E+02
  16.994  0.1454E+01  0.3535E+02
  17.004  0.1450E+01  0.3536E+02
  17.014  0.1447E+01  0.3538E+02
  17.024  0.1443E+01  0.3539E+02
  17.034  0.1439E+01  0.3541E+02
  17.044  0.1436E+01  0.3542E+02
  17.054  0.1432E+01  0.3544E+02
  17.064  0.1428E+01  0.3545E+02
  17.074  0.1424E+01  0.3546E+02
  17.084  0.1420E+01  0.3548E+02
  17.094  0.1415E+01  0.3549E+02
  17.104  0.1411E+01  0.3551E+02
  17.114  0.1407E+01  0.3552E+02
  17.124  0.1403E+01  0.3553E+02
  17.134  0.1398E+01  0.3555E+02
  17.144  0.1394E+01  0.3556E+02
  17.154  0.1389E+01  0.3558E+02
  17.164  0.1385E+01  0.3559E+02
  17.174  0.1380E+01  0.3560E+02
  17.184  0.1376E+01  0.3562E+02
  17.194  0.1372E+01  0.3563E+02
  17.204  0.1367E+01  0.3565E+02
  17.214  0.1363E+01  0.3566E+02
  17.224  0.1358E+01  0.3567E+02
  17.234  0.1354E+01  0.3569E+02
  17.244  0.1349E+01  0.3570E+02
  17.254  0.1345E+01  0.3571E+02
  17.264  0.1340E+01  0.3573E+02
  17.274  0.1336E+01  0.3574E+02
  17.284  0.1332E+01  0.3575E+02
  17.294  0.1328E+01  0.3577E+02
  17.304  0.1323E+01  0.3578E+02
  17.314  0.1319E+01  0.3579E+02
  17.324  0.1315E+01  0.3581E+02
  17.334  0.1311E+01  0.3582E+02
  17.344  0.1307E+01  0.3583E+02
  17.354  0.1303E+01  0.3585E+02
  17.364  0.1299E+01  0.3586E+02
  17.374  0.1295E+01  0.3587E+02
  17.384  0.1291E+01  0.3588E+02
  17.394  0.1287E+01  0.3590E+02
  17.404  0.1284E+01  0.3591E+02
  17.414  0.1280E+01  0.3592E+02
  17.424  0.1276E+01  0.3594E+02
  17.434  0.1273E+01  0.3595E+02
  17.444  0.1269E+01  0.3596E+02
  17.454  0.1266E+01  0.3597E+02
  17.464  0.1262E+01  0.3599E+02
  17.474  0.1259E+01  0.3600E+02
  17.484  0.1256E+01  0.3601E+02
  17.494  0.1253E+01  0.3602E+02
  17.504  0.1249E+01  0.3604E+02
  17.514  0.1246E+01  0.3605E+02
  17.524  0.1243E+01  0.3606E+02
  17.534  0.1240E+01  0.3607E+02
  17.544  0.1237E+01  0.3609E+02
  17.554  0.1234E+01  0.3610E+02
  17.564  0.1231E+01  0.3611E+02
  17.574  0.1229E+01  0.3612E+02
  17.584  0.1226E+01  0.3613E+02
  17.594  0.1223E+01  0.3615E+02
  17.604  0.1220E+01  0.3616E+02
  17.614  0.1217E+01  0.3617E+02
  17.624  0.1215E+01  0.3618E+02
  17.634  0.1212E+01  0.3620E+02
  17.644  0.1210E+01  0.3621E+02
  17.654  0.1207E+01  0.3622E+02
  17.664  0.1205E+01  0.3623E+02
  17.674  0.1202E+01  0.3624E+02
  17.684  0.1200E+01  0.3626E+02
  17.694  0.1197E+01  0.3627E+02
  17.704  0.1195E+01  0.3628E+02
  17.714  0.1192E+01  0.3629E+02
  17.724  0.1190E+01  0.3630E+02
  17.734  0.1187E+01  0.3632E+02
  17.744  0.1185E+01  0.3633E+02
  17.754  0.1183E+01  0.3634E+02
  17.764  0.1180E+01  0.3635E+02
  17.774  0.1178E+01  0.3636E+02
  17.784  0.1176E+01  0.3637E+02
  17.794  0.1173E+01  0.3639E+02
  17.804  0.1171E+01  0.3640E+02
  17.814  0.1169E+01  0.3641E+02
  17.824  0.1167E+01  0.3642E+02
  17.834  0.1164E+01  0.3643E+02
  17.844  0.1162E+01  0.3644E+02
  17.854  0.1160E+01  0.3646E+02
  17.864  0.1157E+01  0.3647E+02
  17.874  0.1155E+01  0.3648E+02
  17.884  0.1153E+01  0.3649E+02
  17.894  0.1151E+01  0.3650E+02
  17.904  0.1148E+01  0.3651E+02
  17.914  0.1146E+01  0.3653E+02
  17.924  0.1144E+01  0.3654E+02
  17.934  0.1141E+01  0.3655E+02
  17.944  0.1139E+01  0.3656E+02
  17.954  0.1137E+01  0.3657E+02
  17.964  0.1135E+01  0.3658E+02
  17.974  0.1132E+01  0.3659E+02
  17.984  0.1130E+01  0.3661E+02
  17.994  0.1128E+01  0.3662E+02
  18.004  0.1126E+01  0.3663E+02
  18.014  0.1123E+01  0.3664E+02
  18.024  0.1121E+01  0.3665E+02
  18.034  0.1119E+01  0.3666E+02
  18.044  0.1116E+01  0.3667E+02
  18.054  0.1114E+01  0.3668E+02
  18.064  0.1112E+01  0.3669E+02
  18.074  0.1110E+01  0.3671E+02
  18.084  0.1107E+01  0.3672E+02
  18.094  0.1105E+01  0.3673E+02
  18.104  0.1103E+01  0.3674E+02
  18.114  0.1100E+01  0.3675E+02
  18.124  0.1098E+01  0.3676E+02
  18.134  0.1096E+01  0.3677E+02
  18.144  0.1094E+01  0.3678E+02
  18.154  0.1091E+01  0.3679E+02
  18.164  0.1089E+01  0.3680E+02
  18.174  0.1087E+01  0.3682E+02
  18.184  0.1085E+01  0.3683E+02
  18.194  0.1082E+01  0.3684E+02
  18.204  0.1080E+01  0.3685E+02
  18.214  0.1078E+01  0.3686E+02
  18.224  0.1076E+01  0.3687E+02
  18.234  0.1074E+01  0.3688E+02
  18.244  0.1071E+01  0.3689E+02
  18.254  0.1069E+01  0.3690E+02
  18.264  0.1067E+01  0.3691E+02
  18.274  0.1065E+01  0.3692E+02
  18.284  0.1063E+01  0.3693E+02
  18.294  0.1061E+01  0.3694E+02
  18.304  0.1059E+01  0.3695E+02
  18.314  0.1057E+01  0.3697E+02
  18.324  0.1055E+01  0.3698E+02
  18.334  0.1053E+01  0.3699E+02
  18.344  0.1051E+01  0.3700E+02
  18.354  0.1049E+01  0.3701E+02
  18.364  0.1047E+01  0.3702E+02
  18.374  0.1045E+01  0.3703E+02
  18.384  0.1043E+01  0.3704E+02
  18.394  0.1041E+01  0.3705E+02
  18.404  0.1040E+01  0.3706E+02
  18.414  0.1038E+01  0.3707E+02
  18.424  0.1036E+01  0.3708E+02
  18.434  0.1034E+01  0.3709E+02
  18.444  0.1033E+01  0.3710E+02
  18.454  0.1031E+01  0.3711E+02
  18.464  0.1029E+01  0.3712E+02
  18.474  0.1028E+01  0.3713E+02
  18.484  0.1026E+01  0.3714E+02
  18.494  0.1025E+01  0.3715E+02
  18.504  0.1023E+01  0.3716E+02
  18.514  0.1022E+01  0.3717E+02
  18.524  0.1021E+01  0.3718E+02
  18.534  0.1019E+01  0.3719E+02
  18.544  0.1018E+01  0.3720E+02
  18.554  0.1017E+01  0.3721E+02
  18.564  0.1016E+01  0.3722E+02
  18.574  0.1015E+01  0.3723E+02
  18.584  0.1014E+01  0.3724E+02
  18.594  0.1013E+01  0.3725E+02
  18.604  0.1012E+01  0.3726E+02
  18.614  0.1011E+01  0.3727E+02
  18.624  0.1011E+01  0.3728E+02
  18.634  0.1010E+01  0.3729E+02
  18.644  0.1009E+01  0.3730E+02
  18.654  0.1009E+01  0.3731E+02
  18.664  0.1008E+01  0.3732E+02
  18.674  0.1008E+01  0.3733E+02
  18.684  0.1007E+01  0.3734E+02
  18.694  0.1007E+01  0.3736E+02
  18.704  0.1007E+01  0.3737E+02
  18.714  0.1007E+01  0.3738E+02
  18.724  0.1007E+01  0.3739E+02
  18.734  0.1007E+01  0.3740E+02
  18.744  0.1007E+01  0.3741E+02
  18.754  0.1007E+01  0.3742E+02
  18.764  0.1008E+01  0.3743E+02
  18.774  0.1008E+01  0.3744E+02
  18.784  0.1009E+01  0.3745E+02
  18.794  0.1009E+01  0.3746E+02
  18.804  0.1010E+01  0.3747E+02
  18.814  0.1011E+01  0.3748E+02
  18.824  0.1012E+01  0.3749E+02
  18.834  0.1013E+01  0.3750E+02
  18.844  0.1014E+01  0.3751E+02
  18.854  0.1015E+01  0.3752E+02
  18.864  0.1016E+01  0.3753E+02
  18.874  0.1018E+01  0.3754E+02
  18.884  0.1019E+01  0.3755E+02
  18.894  0.1021E+01  0.3756E+02
  18.904  0.1023E+01  0.3757E+02
  18.914  0.1024E+01  0.3758E+02
  18.924  0.1026E+01  0.3759E+02
  18.934  0.1028E+01  0.3760E+02
  18.944  0.1030E+01  0.3761E+02
  18.954  0.1033E+01  0.3762E+02
  18.964  0.1035E+01  0.3763E+02
  18.974  0.1037E+01  0.3764E+02
  18.984  0.1040E+01  0.3765E+02
  18.994  0.1042E+01  0.3766E+02
  19.004  0.1045E+01  0.3767E+02
  19.014  0.1048E+01  0.3768E+02
  19.024  0.1051E+01  0.3769E+02
  19.034  0.1054E+01  0.3770E+02
  19.044  0.1057E+01  0.3771E+02
  19.054  0.1060E+01  0.3772E+02
  19.064  0.1063E+01  0.3773E+02
  19.074  0.1067E+01  0.3774E+02
  19.084  0.1070E+01  0.3776E+02
  19.094  0.1074E+01  0.3777E+02
  19.104  0.1077E+01  0.3778E+02
  19.114  0.1081E+01  0.3779E+02
  19.124  0.1085E+01  0.3780E+02
  19.134  0.1089E+01  0.3781E+02
  19.144  0.1093E+01  0.3782E+02
  19.154  0.1097E+01  0.3783E+02
  19.164  0.1101E+01  0.3784E+02
  19.174  0.1105E+01  0.3785E+02
  19.184  0.1109E+01  0.3786E+02
  19.194  0.1114E+01  0.3788E+02
  19.204  0.1118E+01  0.3789E+02
  19.214  0.1123E+01  0.3790E+02
  19.224  0.1127E+01  0.3791E+02
  19.234  0.1132E+01  0.3792E+02
  19.244  0.1137E+01  0.3793E+02
  19.254  0.1141E+01  0.3794E+02
  19.264  0.1146E+01  0.3796E+02
  19.274  0.1151E+01  0.3797E+02
  19.284  0.1156E+01  0.3798E+02
  19.294  0.1161E+01  0.3799E+02
  19.304  0.1166E+01  0.3800E+02
  19.314  0.1171E+01  0.3801E+02
  19.324  0.1177E+01  0.3802E+02
  19.334  0.1182E+01  0.3804E+02
  19.344  0.1187E+01  0.3805E+02
  19.354  0.1192E+01  0.3806E+02
  19.364  0.1198E+01  0.3807E+02
  19.374  0.1203E+01  0.3808E+02
  19.384  0.1209E+01  0.3810E+02
  19.394  0.1214E+01  0.3811E+02
  19.404  0.1220E+01  0.3812E+02
  19.414  0.1226E+01  0.3813E+02
  19.424  0.1231E+01  0.3815E+02
  19.434  0.1237E+01  0.3816E+02
  19.444  0.1243E+01  0.3817E+02
  19.454  0.1249E+01  0.3818E+02
  19.464  0.1255E+01  0.3820E+02
  19.474  0.1260E+01  0.3821E+02
  19.484  0.1266E+01  0.3822E+02
  19.494  0.1272E+01  0.3823E+02
  19.504  0.1278E+01  0.3825E+02
  19.514  0.1284E+01  0.3826E+02
  19.524  0.1290E+01  0.3827E+02
  19.534  0.1296E+01  0.3828E+02
  19.544  0.1302E+01  0.3830E+02
  19.554  0.1309E+01  0.3831E+02
  19.564  0.1315E+01  0.3832E+02
  19.574  0.1321E+01  0.3834E+02
  19.584  0.1327E+01  0.3835E+02
  19.594  0.1333E+01  0.3836E+02
  19.604  0.1339E+01  0.3838E+02
  19.614  0.1345E+01  0.3839E+02
  19.624  0.1351E+01  0.3840E+02
  19.634  0.1358E+01  0.3842E+02
  19.644  0.1364E+01  0.3843E+02
  19.654  0.1370E+01  0.3845E+02
  19.664  0.1376E+01  0.3846E+02
  19.674  0.1382E+01  0.3847E+02
  19.684  0.1388E+01  0.3849E+02
  19.694  0.1394E+01  0.3850E+02
  19.704  0.1400E+01  0.3851E+02
  19.714  0.1406E+01  0.3853E+02
  19.724  0.1412E+01  0.3854E+02
  19.734  0.1417E+01  0.3856E+02
  19.744  0.1423E+01  0.3857E+02
  19.754  0.1429E+01  0.3859E+02
  19.764  0.1435E+01  0.3860E+02
  19.774  0.1440E+01  0.3861E+02
  19.784  0.1446E+01  0.3863E+02
  19.794  0.1451E+01  0.3864E+02
  19.804  0.1456E+01  0.3866E+02
  19.814  0.1462E+01  0.3867E+02
  19.824  0.1467E+01  0.3869E+02
  19.834  0.1472E+01  0.3870E+02
  19.844  0.1477E+01  0.3872E+02
  19.854  0.1482E+01  0.3873E+02
  19.864  0.1486E+01  0.3875E+02
  19.874  0.1491E+01  0.3876E+02
  19.884  0.1495E+01  0.3878E+02
  19.894  0.1500E+01  0.3879E+02
  19.904  0.1504E+01  0.3881E+02
  19.914  0.1508E+01  0.3882E+02
  19.924  0.1512E+01  0.3884E+02
  19.934  0.1516E+01  0.3885E+02
  19.944  0.1519E+01  0.3887E+02
  19.954  0.1522E+01  0.3888E+02
  19.964  0.1526E+01  0.3890E+02
  19.974  0.1529E+01  0.3891E+02
  19.984  0.1532E+01  0.3893E+02
  19.994  0.1534E+01  0.3894E+02
  20.004  0.1537E+01  0.3896E+02
  20.014  0.1539E+01  0.3897E+02
  20.024  0.1541E+01  0.3899E+02
  20.034  0.1543E+01  0.3900E+02
  20.044  0.1545E+01  0.3902E+02
  20.054  0.1546E+01  0.3904E+02
  20.064  0.1547E+01  0.3905E+02
  20.074  0.1548E+01  0.3907E+02
  20.084  0.1549E+01  0.3908E+02
  20.094  0.1550E+01  0.3910E+02
  20.104  0.1550E+01  0.3911E+02
  20.114  0.1550E+01  0.3913E+02
  20.124  0.1550E+01  0.3914E+02
  20.134  0.1550E+01  0.3916E+02
  20.144  0.1549E+01  0.3917E+02
  20.154  0.1548E+01  0.3919E+02
  20.164  0.1547E+01  0.3921E+02
  20.174  0.1546E+01  0.3922E+02
  20.184  0.1544E+01  0.3924E+02
  20.194  0.1543E+01  0.3925E+02
  20.204  0.1541E+01  0.3927E+02
  20.214  0.1539E+01  0.3928E+02
  20.224  0.1536E+01  0.3930E+02
  20.234  0.1534E+01  0.3931E+02
  20.244  0.1531E+01  0.3933E+02
  20.254  0.1528E+01  0.3934E+02
  20.264  0.1525E+01  0.3936E+02
  20.274  0.1521E+01  0.3937E+02
  20.284  0.1518E+01  0.3939E+02
  20.294  0.1514E+01  0.3941E+02
  20.304  0.1510E+01  0.3942E+02
  20.314  0.1506E+01  0.3944E+02
  20.324  0.1502E+01  0.3945E+02
  20.334  0.1497E+01  0.3947E+02
  20.344  0.1493E+01  0.3948E+02
  20.354  0.1488E+01  0.3950E+02
  20.364  0.1483E+01  0.3951E+02
  20.374  0.1479E+01  0.3952E+02
  20.384  0.1474E+01  0.3954E+02
  20.394  0.1469E+01  0.3955E+02
  20.404  0.1463E+01  0.3957E+02
  20.414  0.1458E+01  0.3958E+02
  20.424  0.1453E+01  0.3960E+02
  20.434  0.1448E+01  0.3961E+02
  20.444  0.1443E+01  0.3963E+02
  20.454  0.1438E+01  0.3964E+02
  20.464  0.1432E+01  0.3966E+02
  20.474  0.1427E+01  0.3967E+02
  20.484  0.1422E+01  0.3968E+02
  20.494  0.1417E+01  0.3970E+02
  20.504  0.1412E+01  0.3971E+02
  20.514  0.1407E+01  0.3973E+02
  20.524  0.1403E+01  0.3974E+02
  20.534  0.1398E+01  0.3975E+02
  20.544  0.1394E+01  0.3977E+02
  20.554  0.1389E+01  0.3978E+02
  20.564  0.1385E+01  0.3980E+02
  20.574  0.1381E+01  0.3981E+02
  20.584  0.1377E+01  0.3982E+02
  20.594  0.1374E+01  0.3984E+02
  20.604  0.1371E+01  0.3985E+02
  20.614  0.1368E+01  0.3986E+02
  20.624  0.1365E+01  0.3988E+02
  20.634  0.1362E+01  0.3989E+02
  20.644  0.1360E+01  0.3991E+02
  20.654  0.1358E+01  0.3992E+02
  20.664  0.1357E+01  0.3993E+02
  20.674  0.1356E+01  0.3995E+02
  20.684  0.1355E+01  0.3996E+02
  20.694  0.1354E+01  0.3997E+02
  20.704  0.1354E+01  0.3999E+02
  20.714  0.1354E+01  0.4000E+02
  20.724  0.1355E+01  0.4001E+02
  20.734  0.1356E+01  0.4003E+02
  20.744  0.1357E+01  0.4004E+02
  20.754  0.1359E+01  0.4005E+02
  20.764  0.1361E+01  0.4007E+02
  20.774  0.1363E+01  0.4008E+02
  20.784  0.1366E+01  0.4010E+02
  20.794  0.1369E+01  0.4011E+02
  20.804  0.1373E+01  0.4012E+02
  20.814  0.1377E+01  0.4014E+02
  20.824  0.1381E+01  0.4015E+02
  20.834  0.1386E+01  0.4016E+02
  20.844  0.1391E+01  0.4018E+02
  20.854  0.1397E+01  0.4019E+02
  20.864  0.1403E+01  0.4021E+02
  20.874  0.1409E+01  0.4022E+02
  20.884  0.1416E+01  0.4023E+02
  20.894  0.1423E+01  0.4025E+02
  20.904  0.1430E+01  0.4026E+02
  20.914  0.1438E+01  0.4028E+02
  20.924  0.1445E+01  0.4029E+02
  20.934  0.1454E+01  0.4031E+02
  20.944  0.1462E+01  0.4032E+02
  20.954  0.1471E+01  0.4034E+02
  20.964  0.1480E+01  0.4035E+02
  20.974  0.1489E+01  0.4037E+02
  20.984  0.1498E+01  0.4038E+02
  20.994  0.1508E+01  0.4040E+02
  21.004  0.1518E+01  0.4041E+02
  21.014  0.1528E+01  0.4043E+02
  21.024  0.1538E+01  0.4044E+02
  21.034  0.1548E+01  0.4046E+02
  21.044  0.1558E+01  0.4047E+02
  21.054  0.1568E+01  0.4049E+02
  21.064  0.1578E+01  0.4050E+02
  21.074  0.1589E+01  0.4052E+02
  21.084  0.1599E+01  0.4054E+02
  21.094  0.1609E+01  0.4055E+02
  21.104  0.1619E+01  0.4057E+02
  21.114  0.1629E+01  0.4058E+02
  21.124  0.1639E+01  0.4060E+02
  21.134  0.1649E+01  0.4062E+02
  21.144  0.1659E+01  0.4063E+02
  21.154  0.1669E+01  0.4065E+02
  21.164  0.1678E+01  0.4067E+02
  21.174  0.1687E+01  0.4068E+02
  21.184  0.1696E+01  0.4070E+02
  21.194  0.1704E+01  0.4072E+02
  21.204  0.1713E+01  0.4074E+02
  21.214  0.1721E+01  0.4075E+02
  21.224  0.1729E+01  0.4077E+02
  21.234  0.1736E+01  0.4079E+02
  21.244  0.1743E+01  0.4080E+02
  21.254  0.1750E+01  0.4082E+02
  21.264  0.1756E+01  0.4084E+02
  21.274  0.1762E+01  0.4086E+02
  21.284  0.1767E+01  0.4087E+02
  21.294  0.1772E+01  0.4089E+02
  21.304  0.1777E+01  0.4091E+02
  21.314  0.1781E+01  0.4093E+02
  21.324  0.1785E+01  0.4095E+02
  21.334  0.1788E+01  0.4096E+02
  21.344  0.1791E+01  0.4098E+02
  21.354  0.1793E+01  0.4100E+02
  21.364  0.1795E+01  0.4102E+02
  21.374  0.1796E+01  0.4104E+02
  21.384  0.1797E+01  0.4105E+02
  21.394  0.1797E+01  0.4107E+02
  21.404  0.1797E+01  0.4109E+02
  21.414  0.1796E+01  0.4111E+02
  21.424  0.1795E+01  0.4113E+02
  21.434  0.1793E+01  0.4114E+02
  21.444  0.1791E+01  0.4116E+02
  21.454  0.1789E+01  0.4118E+02
  21.464  0.1786E+01  0.4120E+02
  21.474  0.1782E+01  0.4121E+02
  21.484  0.1778E+01  0.4123E+02
  21.494  0.1774E+01  0.4125E+02
  21.504  0.1769E+01  0.4127E+02
  21.514  0.1763E+01  0.4129E+02
  21.524  0.1758E+01  0.4130E+02
  21.534  0.1752E+01  0.4132E+02
  21.544  0.1745E+01  0.4134E+02
  21.554  0.1738E+01  0.4136E+02
  21.564  0.1731E+01  0.4137E+02
  21.574  0.1723E+01  0.4139E+02
  21.584  0.1716E+01  0.4141E+02
  21.594  0.1707E+01  0.4142E+02
  21.604  0.1699E+01  0.4144E+02
  21.614  0.1690E+01  0.4146E+02
  21.624  0.1681E+01  0.4148E+02
  21.634  0.1672E+01  0.4149E+02
  21.644  0.1663E+01  0.4151E+02
  21.654  0.1653E+01  0.4153E+02
  21.664  0.1644E+01  0.4154E+02
  21.674  0.1634E+01  0.4156E+02
  21.684  0.1624E+01  0.4157E+02
  21.694  0.1614E+01  0.4159E+02
  21.704  0.1604E+01  0.4161E+02
  21.714  0.1593E+01  0.4162E+02
  21.724  0.1583E+01  0.4164E+02
  21.734  0.1573E+01  0.4165E+02
  21.744  0.1563E+01  0.4167E+02
  21.754  0.1552E+01  0.4168E+02
  21.764  0.1542E+01  0.4170E+02
  21.774  0.1532E+01  0.4172E+02
  21.784  0.1522E+01  0.4173E+02
  21.794  0.1512E+01  0.4175E+02
  21.804  0.1503E+01  0.4176E+02
  21.814  0.1493E+01  0.4178E+02
  21.824  0.1484E+01  0.4179E+02
  21.834  0.1474E+01  0.4181E+02
  21.844  0.1465E+01  0.4182E+02
  21.854  0.1456E+01  0.4183E+02
  21.864  0.1448E+01  0.4185E+02
  21.874  0.1439E+01  0.4186E+02
  21.884  0.1431E+01  0.4188E+02
  21.894  0.1423E+01  0.4189E+02
  21.904  0.1416E+01  0.4191E+02
  21.914  0.1409E+01  0.4192E+02
  21.924  0.1402E+01  0.4193E+02
  21.934  0.1395E+01  0.4195E+02
  21.944  0.1389E+01  0.4196E+02
  21.954  0.1383E+01  0.4198E+02
  21.964  0.1377E+01  0.4199E+02
  21.974  0.1372E+01  0.4200E+02
  21.984  0.1367E+01  0.4202E+02
  21.994  0.1363E+01  0.4203E+02
  22.004  0.1359E+01  0.4204E+02
  22.014  0.1355E+01  0.4206E+02
  22.024  0.1351E+01  0.4207E+02
  22.034  0.1348E+01  0.4209E+02
  22.044  0.1346E+01  0.4210E+02
  22.054  0.1343E+01  0.4211E+02
  22.064  0.1341E+01  0.4213E+02
  22.074  0.1340E+01  0.4214E+02
  22.084  0.1339E+01  0.4215E+02
  22.094  0.1338E+01  0.4217E+02
  22.104  0.1337E+01  0.4218E+02
  22.114  0.1337E+01  0.4219E+02
  22.124  0.1337E+01  0.4221E+02
  22.134  0.1338E+01  0.4222E+02
  22.144  0.1339E+01  0.4223E+02
  22.154  0.1340E+01  0.4225E+02
  22.164  0.1342E+01  0.4226E+02
  22.174  0.1343E+01  0.4227E+02
  22.184  0.1345E+01  0.4229E+02
  22.194  0.1348E+01  0.4230E+02
  22.204  0.1350E+01  0.4231E+02
  22.214  0.1353E+01  0.4233E+02
  22.224  0.1356E+01  0.4234E+02
  22.234  0.1360E+01  0.4235E+02
  22.244  0.1363E+01  0.4237E+02
  22.254  0.1367E+01  0.4238E+02
  22.264  0.1371E+01  0.4239E+02
  22.274  0.1375E+01  0.4241E+02
  22.284  0.1379E+01  0.4242E+02
  22.294  0.1383E+01  0.4244E+02
  22.304  0.1388E+01  0.4245E+02
  22.314  0.1392E+01  0.4246E+02
  22.324  0.1397E+01  0.4248E+02
  22.334  0.1401E+01  0.4249E+02
  22.344  0.1406E+01  0.4251E+02
  22.354  0.1411E+01  0.4252E+02
  22.364  0.1415E+01  0.4253E+02
  22.374  0.1420E+01  0.4255E+02
  22.384  0.1425E+01  0.4256E+02
  22.394  0.1430E+01  0.4258E+02
  22.404  0.1434E+01  0.4259E+02
  22.414  0.1439E+01  0.4261E+02
  22.424  0.1443E+01  0.4262E+02
  22.434  0.1448E+01  0.4263E+02
  22.444  0.1452E+01  0.4265E+02
  22.454  0.1456E+01  0.4266E+02
  22.464  0.1460E+01  0.4268E+02
  22.474  0.1464E+01  0.4269E+02
  22.484  0.1468E+01  0.4271E+02
  22.494  0.1472E+01  0.4272E+02
  22.504  0.1475E+01  0.4274E+02
  22.514  0.1479E+01  0.4275E+02
  22.524  0.1482E+01  0.4277E+02
  22.534  0.1485E+01  0.4278E+02
  22.544  0.1488E+01  0.4280E+02
  22.554  0.1490E+01  0.4281E+02
  22.564  0.1493E+01  0.4283E+02
  22.574  0.1495E+01  0.4284E+02
  22.584  0.1497E+01  0.4286E+02
  22.594  0.1499E+01  0.4287E+02
  22.604  0.1500E+01  0.4289E+02
  22.614  0.1501E+01  0.4290E+02
  22.624  0.1503E+01  0.4292E+02
  22.634  0.1504E+01  0.4293E+02
  22.644  0.1504E+01  0.4295E+02
  22.654  0.1505E+01  0.4296E+02
  22.664  0.1505E+01  0.4298E+02
  22.674  0.1505E+01  0.4299E+02
  22.684  0.1505E+01  0.4301E+02
  22.694  0.1505E+01  0.4302E+02
  22.704  0.1504E+01  0.4304E+02
  22.714  0.1504E+01  0.4305E+02
  22.724  0.1503E+01  0.4307E+02
  22.734  0.1502E+01  0.4308E+02
  22.744  0.1501E+01  0.4310E+02
  22.754  0.1500E+01  0.4311E+02
  22.764  0.1498E+01  0.4313E+02
  22.774  0.1497E+01  0.4314E+02
  22.784  0.1495E+01  0.4316E+02
  22.794  0.1494E+01  0.4317E+02
  22.804  0.1492E+01  0.4319E+02
  22.814  0.1490E+01  0.4320E+02
  22.824  0.1488E+01  0.4322E+02
  22.834  0.1486E+01  0.4323E+02
  22.844  0.1484E+01  0.4325E+02
  22.854  0.1482E+01  0.4326E+02
  22.864  0.1480E+01  0.4328E+02
  22.874  0.1478E+01  0.4329E+02
  22.884  0.1476E+01  0.4331E+02
  22.894  0.1474E+01  0.4332E+02
  22.904  0.1472E+01  0.4333E+02
  22.914  0.1470E+01  0.4335E+02
  22.924  0.1468E+01  0.4336E+02
  22.934  0.1466E+01  0.4338E+02
  22.944  0.1464E+01  0.4339E+02
  22.954  0.1462E+01  0.4341E+02
  22.964  0.1461E+01  0.4342E+02
  22.974  0.1459E+01  0.4344E+02
  22.984  0.1457E+01  0.4345E+02
  22.994  0.1456E+01  0.4347E+02
  23.004  0.1455E+01  0.4348E+02
  23.014  0.1454E+01  0.4350E+02
  23.024  0.1453E+01  0.4351E+02
  23.034  0.1452E+01  0.4352E+02
  23.044  0.1452E+01  0.4354E+02
  23.054  0.1451E+01  0.4355E+02
  23.064  0.1451E+01  0.4357E+02
  23.074  0.1451E+01  0.4358E+02
  23.084  0.1451E+01  0.4360E+02
  23.094  0.1451E+01  0.4361E+02
  23.104  0.1452E+01  0.4363E+02
  23.114  0.1453E+01  0.4364E+02
  23.124  0.1453E+01  0.4365E+02
  23.134  0.1455E+01  0.4367E+02
  23.144  0.1456E+01  0.4368E+02
  23.154  0.1457E+01  0.4370E+02
  23.164  0.1459E+01  0.4371E+02
  23.174  0.1461E+01  0.4373E+02
  23.184  0.1463E+01  0.4374E+02
  23.194  0.1466E+01  0.4376E+02
  23.204  0.1468E+01  0.4377E+02
  23.214  0.1471E+01  0.4379E+02
  23.224  0.1474E+01  0.4380E+02
  23.234  0.1478E+01  0.4382E+02
  23.244  0.1481E+01  0.4383E+02
  23.254  0.1485E+01  0.4385E+02
  23.264  0.1489E+01  0.4386E+02
  23.274  0.1493E+01  0.4388E+02
  23.284  0.1497E+01  0.4389E+02
  23.294  0.1502E+01  0.4391E+02
  23.304  0.1507E+01  0.4392E+02
  23.314  0.1512E+01  0.4394E+02
  23.324  0.1517E+01  0.4395E+02
  23.334  0.1523E+01  0.4397E+02
  23.344  0.1528E+01  0.4398E+02
  23.354  0.1534E+01  0.4400E+02
  23.364  0.1540E+01  0.4401E+02
  23.374  0.1546E+01  0.4403E+02
  23.384  0.1553E+01  0.4404E+02
  23.394  0.1559E+01  0.4406E+02
  23.404  0.1566E+01  0.4407E+02
  23.414  0.1573E+01  0.4409E+02
  23.424  0.1580E+01  0.4411E+02
  23.434  0.1588E+01  0.4412E+02
  23.444  0.1595E+01  0.4414E+02
  23.454  0.1603E+01  0.4415E+02
  23.464  0.1611E+01  0.4417E+02
  23.474  0.1619E+01  0.4419E+02
  23.484  0.1627E+01  0.4420E+02
  23.494  0.1636E+01  0.4422E+02
  23.504  0.1644E+01  0.4424E+02
  23.514  0.1653E+01  0.4425E+02
  23.524  0.1662E+01  0.4427E+02
  23.534  0.1671E+01  0.4428E+02
  23.544  0.1680E+01  0.4430E+02
  23.554  0.1689E+01  0.4432E+02
  23.564  0.1699E+01  0.4434E+02
  23.574  0.1708E+01  0.4435E+02
  23.584  0.1718E+01  0.4437E+02
  23.594  0.1728E+01  0.4439E+02
  23.604  0.1738E+01  0.4440E+02
  23.614  0.1748E+01  0.4442E+02
  23.624  0.1759E+01  0.4444E+02
  23.634  0.1769E+01  0.4446E+02
  23.644  0.1780E+01  0.4448E+02
  23.654  0.1790E+01  0.4449E+02
  23.664  0.1801E+01  0.4451E+02
  23.674  0.1812E+01  0.4453E+02
  23.684  0.1823E+01  0.4455E+02
  23.694  0.1834E+01  0.4457E+02
  23.704  0.1845E+01  0.4458E+02
  23.714  0.1856E+01  0.4460E+02
  23.724  0.1867E+01  0.4462E+02
  23.734  0.1879E+01  0.4464E+02
  23.744  0.1890E+01  0.4466E+02
  23.754  0.1902E+01  0.4468E+02
  23.764  0.1913E+01  0.4470E+02
  23.774  0.1924E+01  0.4472E+02
  23.784  0.1936E+01  0.4474E+02
  23.794  0.1947E+01  0.4476E+02
  23.804  0.1959E+01  0.4477E+02
  23.814  0.1970E+01  0.4479E+02
  23.824  0.1982E+01  0.4481E+02
  23.834  0.1993E+01  0.4483E+02
  23.844  0.2005E+01  0.4485E+02
  23.854  0.2016E+01  0.4487E+02
  23.864  0.2027E+01  0.4489E+02
  23.874  0.2038E+01  0.4492E+02
  23.884  0.2049E+01  0.4494E+02
  23.894  0.2060E+01  0.4496E+02
  23.904  0.2071E+01  0.4498E+02
  23.914  0.2081E+01  0.4500E+02
  23.924  0.2092E+01  0.4502E+02
  23.934  0.2102E+01  0.4504E+02
  23.944  0.2112E+01  0.4506E+02
  23.954  0.2122E+01  0.4508E+02
  23.964  0.2131E+01  0.4510E+02
  23.974  0.2141E+01  0.4512E+02
  23.984  0.2150E+01  0.4515E+02
  23.994  0.2158E+01  0.4517E+02
  24.004  0.2167E+01  0.4519E+02
  24.014  0.2175E+01  0.4521E+02
  24.024  0.2183E+01  0.4523E+02
  24.034  0.2190E+01  0.4526E+02
  24.044  0.2197E+01  0.4528E+02
  24.054  0.2204E+01  0.4530E+02
  24.064  0.2210E+01  0.4532E+02
  24.074  0.2216E+01  0.4534E+02
  24.084  0.2221E+01  0.4537E+02
  24.094  0.2226E+01  0.4539E+02
  24.104  0.2231E+01  0.4541E+02
  24.114  0.2235E+01  0.4543E+02
  24.124  0.2239E+01  0.4545E+02
  24.134  0.2242E+01  0.4548E+02
  24.144  0.2244E+01  0.4550E+02
  24.154  0.2246E+01  0.4552E+02
  24.164  0.2248E+01  0.4554E+02
  24.174  0.2249E+01  0.4557E+02
  24.184  0.2249E+01  0.4559E+02
  24.194  0.2249E+01  0.4561E+02
  24.204  0.2248E+01  0.4563E+02
  24.214  0.2247E+01  0.4566E+02
  24.224  0.2245E+01  0.4568E+02
  24.234  0.2242E+01  0.4570E+02
  24.244  0.2239E+01  0.4572E+02
  24.254  0.2235E+01  0.4575E+02
  24.264  0.2231E+01  0.4577E+02
  24.274  0.2226E+01  0.4579E+02
  24.284  0.2220E+01  0.4581E+02
  24.294  0.2214E+01  0.4584E+02
  24.304  0.2207E+01  0.4586E+02
  24.314  0.2200E+01  0.4588E+02
  24.324  0.2192E+01  0.4590E+02
  24.334  0.2183E+01  0.4592E+02
  24.344  0.2174E+01  0.4595E+02
  24.354  0.2164E+01  0.4597E+02
  24.364  0.2153E+01  0.4599E+02
  24.374  0.2142E+01  0.4601E+02
  24.384  0.2130E+01  0.4603E+02
  24.394  0.2118E+01  0.4605E+02
  24.404  0.2105E+01  0.4607E+02
  24.414  0.2092E+01  0.4609E+02
  24.424  0.2078E+01  0.4611E+02
  24.434  0.2064E+01  0.4614E+02
  24.444  0.2049E+01  0.4616E+02
  24.454  0.2033E+01  0.4618E+02
  24.464  0.2017E+01  0.4620E+02
  24.474  0.2001E+01  0.4622E+02
  24.484  0.1984E+01  0.4624E+02
  24.494  0.1967E+01  0.4626E+02
  24.504  0.1949E+01  0.4628E+02
  24.514  0.1931E+01  0.4629E+02
  24.524  0.1913E+01  0.4631E+02
  24.534  0.1894E+01  0.4633E+02
  24.544  0.1875E+01  0.4635E+02
  24.554  0.1855E+01  0.4637E+02
  24.564  0.1835E+01  0.4639E+02
  24.574  0.1815E+01  0.4641E+02
  24.584  0.1795E+01  0.4642E+02
  24.594  0.1774E+01  0.4644E+02
  24.604  0.1753E+01  0.4646E+02
  24.614  0.1732E+01  0.4648E+02
  24.624  0.1711E+01  0.4649E+02
  24.634  0.1689E+01  0.4651E+02
  24.644  0.1668E+01  0.4653E+02
  24.654  0.1646E+01  0.4654E+02
  24.664  0.1624E+01  0.4656E+02
  24.674  0.1602E+01  0.4658E+02
  24.684  0.1580E+01  0.4659E+02
  24.694  0.1558E+01  0.4661E+02
  24.704  0.1536E+01  0.4662E+02
  24.714  0.1514E+01  0.4664E+02
  24.724  0.1492E+01  0.4665E+02
  24.734  0.1470E+01  0.4667E+02
  24.744  0.1448E+01  0.4668E+02
  24.754  0.1426E+01  0.4670E+02
  24.764  0.1405E+01  0.4671E+02
  24.774  0.1383E+01  0.4672E+02
  24.784  0.1362E+01  0.4674E+02
  24.794  0.1340E+01  0.4675E+02
  24.804  0.1319E+01  0.4677E+02
  24.814  0.1298E+01  0.4678E+02
  24.824  0.1277E+01  0.4679E+02
  24.834  0.1257E+01  0.4680E+02
  24.844  0.1237E+01  0.4682E+02
  24.854  0.1217E+01  0.4683E+02
  24.864  0.1197E+01  0.4684E+02
  24.874  0.1177E+01  0.4685E+02
  24.884  0.1158E+01  0.4686E+02
  24.894  0.1139E+01  0.4687E+02
  24.904  0.1120E+01  0.4689E+02
  24.914  0.1102E+01  0.4690E+02
  24.924  0.1084E+01  0.4691E+02
  24.934  0.1067E+01  0.4692E+02
  24.944  0.1049E+01  0.4693E+02
  24.954  0.1032E+01  0.4694E+02
  24.964  0.1016E+01  0.4695E+02
  24.974  0.9995E+00  0.4696E+02
  24.984  0.9836E+00  0.4697E+02
  24.994  0.9682E+00  0.4698E+02
  25.004  0.9531E+00  0.4699E+02
  25.014  0.9384E+00  0.4700E+02
  25.024  0.9241E+00  0.4701E+02
  25.034  0.9102E+00  0.4702E+02
  25.044  0.8967E+00  0.4703E+02
  25.054  0.8836E+00  0.4703E+02
  25.064  0.8709E+00  0.4704E+02
  25.074  0.8586E+00  0.4705E+02
  25.084  0.8467E+00  0.4706E+02
  25.094  0.8352E+00  0.4707E+02
  25.104  0.8240E+00  0.4708E+02
  25.114  0.8133E+00  0.4708E+02
  25.124  0.8030E+00  0.4709E+02
  25.134  0.7930E+00  0.4710E+02
  25.144  0.7834E+00  0.4711E+02
  25.154  0.7742E+00  0.4712E+02
  25.164  0.7653E+00  0.4712E+02
  25.174  0.7569E+00  0.4713E+02
  25.184  0.7488E+00  0.4714E+02
  25.194  0.7410E+00  0.4715E+02
  25.204  0.7336E+00  0.4715E+02
  25.214  0.7265E+00  0.4716E+02
  25.224  0.7197E+00  0.4717E+02
  25.234  0.7133E+00  0.4718E+02
  25.244  0.7072E+00  0.4718E+02
  25.254  0.7014E+00  0.4719E+02
  25.264  0.6958E+00  0.4720E+02
  25.274  0.6906E+00  0.4720E+02
  25.284  0.6857E+00  0.4721E+02
  25.294  0.6810E+00  0.4722E+02
  25.304  0.6765E+00  0.4722E+02
  25.314  0.6724E+00  0.4723E+02
  25.324  0.6684E+00  0.4724E+02
  25.334  0.6647E+00  0.4724E+02
  25.344  0.6612E+00  0.4725E+02
  25.354  0.6579E+00  0.4726E+02
  25.364  0.6548E+00  0.4726E+02
  25.374  0.6519E+00  0.4727E+02
  25.384  0.6492E+00  0.4728E+02
  25.394  0.6466E+00  0.4728E+02
  25.404  0.6442E+00  0.4729E+02
  25.414  0.6419E+00  0.4730E+02
  25.424  0.6398E+00  0.4730E+02
  25.434  0.6378E+00  0.4731E+02
  25.444  0.6359E+00  0.4731E+02
  25.454  0.6341E+00  0.4732E+02
  25.464  0.6323E+00  0.4733E+02
  25.474  0.6307E+00  0.4733E+02
  25.484  0.6292E+00  0.4734E+02
  25.494  0.6277E+00  0.4735E+02
  25.504  0.6262E+00  0.4735E+02
  25.514  0.6248E+00  0.4736E+02
  25.524  0.6234E+00  0.4736E+02
  25.534  0.6221E+00  0.4737E+02
  25.544  0.6208E+00  0.4738E+02
  25.554  0.6195E+00  0.4738E+02
  25.564  0.6181E+00  0.4739E+02
  25.574  0.6168E+00  0.4740E+02
  25.584  0.6155E+00  0.4740E+02
  25.594  0.6141E+00  0.4741E+02
  25.604  0.6127E+00  0.4741E+02
  25.614  0.6113E+00  0.4742E+02
  25.624  0.6099E+00  0.4743E+02
  25.634  0.6083E+00  0.4743E+02
  25.644  0.6068E+00  0.4744E+02
  25.654  0.6052E+00  0.4744E+02
  25.664  0.6035E+00  0.4745E+02
  25.674  0.6017E+00  0.4746E+02
  25.684  0.5999E+00  0.4746E+02
  25.694  0.5980E+00  0.4747E+02
  25.704  0.5960E+00  0.4747E+02
  25.714  0.5940E+00  0.4748E+02
  25.724  0.5918E+00  0.4749E+02
  25.734  0.5896E+00  0.4749E+02
  25.744  0.5873E+00  0.4750E+02
  25.754  0.5848E+00  0.4750E+02
  25.764  0.5823E+00  0.4751E+02
  25.774  0.5797E+00  0.4752E+02
  25.784  0.5770E+00  0.4752E+02
  25.794  0.5742E+00  0.4753E+02
  25.804  0.5712E+00  0.4753E+02
  25.814  0.5682E+00  0.4754E+02
  25.824  0.5651E+00  0.4754E+02
  25.834  0.5619E+00  0.4755E+02
  25.844  0.5586E+00  0.4756E+02
  25.854  0.5552E+00  0.4756E+02
  25.864  0.5516E+00  0.4757E+02
  25.874  0.5480E+00  0.4757E+02
  25.884  0.5443E+00  0.4758E+02
  25.894  0.5405E+00  0.4758E+02
  25.904  0.5366E+00  0.4759E+02
  25.914  0.5326E+00  0.4759E+02
  25.924  0.5285E+00  0.4760E+02
  25.934  0.5243E+00  0.4760E+02
  25.944  0.5201E+00  0.4761E+02
  25.954  0.5157E+00  0.4761E+02
  25.964  0.5113E+00  0.4762E+02
  25.974  0.5068E+00  0.4762E+02
  25.984  0.5023E+00  0.4763E+02
  25.994  0.4976E+00  0.4763E+02
  26.004  0.4929E+00  0.4764E+02
  26.014  0.4881E+00  0.4764E+02
  26.024  0.4833E+00  0.4765E+02
  26.034  0.4784E+00  0.4765E+02
  26.044  0.4734E+00  0.4766E+02
  26.054  0.4684E+00  0.4766E+02
  26.064  0.4634E+00  0.4767E+02
  26.074  0.4583E+00  0.4767E+02
  26.084  0.4532E+00  0.4768E+02
  26.094  0.4480E+00  0.4768E+02
  26.104  0.4428E+00  0.4769E+02
  26.114  0.4375E+00  0.4769E+02
  26.124  0.4323E+00  0.4769E+02
  26.134  0.4270E+00  0.4770E+02
  26.144  0.4217E+00  0.4770E+02
  26.154  0.4164E+00  0.4771E+02
  26.164  0.4110E+00  0.4771E+02
  26.174  0.4057E+00  0.4772E+02
  26.184  0.4004E+00  0.4772E+02
  26.194  0.3950E+00  0.4772E+02
  26.204  0.3897E+00  0.4773E+02
  26.214  0.3843E+00  0.4773E+02
  26.224  0.3790E+00  0.4774E+02
  26.234  0.3736E+00  0.4774E+02
  26.244  0.3683E+00  0.4774E+02
  26.254  0.3630E+00  0.4775E+02
  26.264  0.3577E+00  0.4775E+02
  26.274  0.3525E+00  0.4775E+02
  26.284  0.3472E+00  0.4776E+02
  26.294  0.3420E+00  0.4776E+02
  26.304  0.3368E+00  0.4776E+02
  26.314  0.3316E+00  0.4777E+02
  26.324  0.3265E+00  0.4777E+02
  26.334  0.3214E+00  0.4777E+02
  26.344  0.3163E+00  0.4778E+02
  26.354  0.3113E+00  0.4778E+02
  26.364  0.3063E+00  0.4778E+02
  26.374  0.3013E+00  0.4779E+02
  26.384  0.2964E+00  0.4779E+02
  26.394  0.2915E+00  0.4779E+02
  26.404  0.2867E+00  0.4779E+02
  26.414  0.2819E+00  0.4780E+02
  26.424  0.2772E+00  0.4780E+02
  26.434  0.2725E+00  0.4780E+02
  26.444  0.2678E+00  0.4781E+02
  26.454  0.2632E+00  0.4781E+02
  26.464  0.2586E+00  0.4781E+02
  26.474  0.2541E+00  0.4781E+02
  26.484  0.2496E+00  0.4782E+02
  26.494  0.2452E+00  0.4782E+02
  26.504  0.2409E+00  0.4782E+02
  26.514  0.2365E+00  0.4782E+02
  26.524  0.2323E+00  0.4783E+02
  26.534  0.2280E+00  0.4783E+02
  26.544  0.2239E+00  0.4783E+02
  26.554  0.2198E+00  0.4783E+02
  26.564  0.2157E+00  0.4783E+02
  26.574  0.2117E+00  0.4784E+02
  26.584  0.2077E+00  0.4784E+02
  26.594  0.2038E+00  0.4784E+02
  26.604  0.1999E+00  0.4784E+02
  26.614  0.1961E+00  0.4784E+02
  26.624  0.1924E+00  0.4785E+02
  26.634  0.1887E+00  0.4785E+02
  26.644  0.1850E+00  0.4785E+02
  26.654  0.1814E+00  0.4785E+02
  26.664  0.1779E+00  0.4785E+02
  26.674  0.1744E+00  0.4786E+02
  26.684  0.1710E+00  0.4786E+02
  26.694  0.1676E+00  0.4786E+02
  26.704  0.1643E+00  0.4786E+02
  26.714  0.1610E+00  0.4786E+02
  26.724  0.1578E+00  0.4786E+02
  26.734  0.1547E+00  0.4787E+02
  26.744  0.1516E+00  0.4787E+02
  26.754  0.1486E+00  0.4787E+02
  26.764  0.1456E+00  0.4787E+02
  26.774  0.1427E+00  0.4787E+02
  26.784  0.1398E+00  0.4787E+02
  26.794  0.1370E+00  0.4787E+02
  26.804  0.1343E+00  0.4788E+02
  26.814  0.1316E+00  0.4788E+02
  26.824  0.1290E+00  0.4788E+02
  26.834  0.1265E+00  0.4788E+02
  26.844  0.1240E+00  0.4788E+02
  26.854  0.1216E+00  0.4788E+02
  26.864  0.1192E+00  0.4788E+02
  26.874  0.1169E+00  0.4788E+02
  26.884  0.1147E+00  0.4789E+02
  26.894  0.1126E+00  0.4789E+02
  26.904  0.1105E+00  0.4789E+02
  26.914  0.1085E+00  0.4789E+02
  26.924  0.1065E+00  0.4789E+02
  26.934  0.1046E+00  0.4789E+02
  26.944  0.1028E+00  0.4789E+02
  26.954  0.1011E+00  0.4789E+02
  26.964  0.9938E-01  0.4789E+02
  26.974  0.9777E-01  0.4789E+02
  26.984  0.9623E-01  0.4790E+02
  26.994  0.9476E-01  0.4790E+02
  27.004  0.9336E-01  0.4790E+02
  27.014  0.9202E-01  0.4790E+02
  27.024  0.9076E-01  0.4790E+02
  27.034  0.8956E-01  0.4790E+02
  27.044  0.8843E-01  0.4790E+02
  27.054  0.8736E-01  0.4790E+02
  27.064  0.8637E-01  0.4790E+02
  27.074  0.8543E-01  0.4790E+02
  27.084  0.8456E-01  0.4790E+02
  27.094  0.8376E-01  0.4791E+02
  27.104  0.8302E-01  0.4791E+02
  27.114  0.8233E-01  0.4791E+02
  27.124  0.8171E-01  0.4791E+02
  27.134  0.8115E-01  0.4791E+02
  27.144  0.8064E-01  0.4791E+02
  27.154  0.8018E-01  0.4791E+02
  27.164  0.7978E-01  0.4791E+02
  27.174  0.7944E-01  0.4791E+02
  27.184  0.7914E-01  0.4791E+02
  27.194  0.7888E-01  0.4791E+02
  27.204  0.7868E-01  0.4791E+02
  27.214  0.7852E-01  0.4791E+02
  27.224  0.7840E-01  0.4792E+02
  27.234  0.7831E-01  0.4792E+02
  27.244  0.7827E-01  0.4792E+02
  27.254  0.7826E-01  0.4792E+02
  27.264  0.7828E-01  0.4792E+02
  27.274  0.7832E-01  0.4792E+02
  27.284  0.7840E-01  0.4792E+02
  27.294  0.7850E-01  0.4792E+02
  27.304  0.7862E-01  0.4792E+02
  27.314  0.7876E-01  0.4792E+02
  27.324  0.7892E-01  0.4792E+02
  27.334  0.7909E-01  0.4792E+02
  27.344  0.7927E-01  0.4793E+02
  27.354  0.7945E-01  0.4793E+02
  27.364  0.7965E-01  0.4793E+02
  27.374  0.7984E-01  0.4793E+02
  27.384  0.8004E-01  0.4793E+02
  27.394  0.8023E-01  0.4793E+02
  27.404  0.8042E-01  0.4793E+02
  27.414  0.8061E-01  0.4793E+02
  27.424  0.8078E-01  0.4793E+02
  27.434  0.8094E-01  0.4793E+02
  27.444  0.8108E-01  0.4793E+02
  27.454  0.8121E-01  0.4793E+02
  27.464  0.8132E-01  0.4793E+02
  27.474  0.8141E-01  0.4794E+02
  27.484  0.8148E-01  0.4794E+02
  27.494  0.8152E-01  0.4794E+02
  27.504  0.8154E-01  0.4794E+02
  27.514  0.8153E-01  0.4794E+02
  27.524  0.8149E-01  0.4794E+02
  27.534  0.8142E-01  0.4794E+02
  27.544  0.8131E-01  0.4794E+02
  27.554  0.8117E-01  0.4794E+02
  27.564  0.8100E-01  0.4794E+02
  27.574  0.8079E-01  0.4794E+02
  27.584  0.8055E-01  0.4794E+02
  27.594  0.8027E-01  0.4795E+02
  27.604  0.7995E-01  0.4795E+02
  27.614  0.7959E-01  0.4795E+02
  27.624  0.7920E-01  0.4795E+02
  27.634  0.7876E-01  0.4795E+02
  27.644  0.7829E-01  0.4795E+02
  27.654  0.7778E-01  0.4795E+02
  27.664  0.7723E-01  0.4795E+02
  27.674  0.7664E-01  0.4795E+02
  27.684  0.7601E-01  0.4795E+02
  27.694  0.7535E-01  0.4795E+02
  27.704  0.7464E-01  0.4795E+02
  27.714  0.7391E-01  0.4795E+02
  27.724  0.7313E-01  0.4796E+02
  27.734  0.7232E-01  0.4796E+02
  27.744  0.7148E-01  0.4796E+02
  27.754  0.7060E-01  0.4796E+02
  27.764  0.6970E-01  0.4796E+02
  27.774  0.6876E-01  0.4796E+02
  27.784  0.6779E-01  0.4796E+02
  27.794  0.6680E-01  0.4796E+02
  27.804  0.6578E-01  0.4796E+02
  27.814  0.6473E-01  0.4796E+02
  27.824  0.6367E-01  0.4796E+02
  27.834  0.6257E-01  0.4796E+02
  27.844  0.6146E-01  0.4796E+02
  27.854  0.6033E-01  0.4796E+02
  27.864  0.5919E-01  0.4796E+02
  27.874  0.5802E-01  0.4797E+02
  27.884  0.5685E-01  0.4797E+02
  27.894  0.5566E-01  0.4797E+02
  27.904  0.5446E-01  0.4797E+02
  27.914  0.5325E-01  0.4797E+02
  27.924  0.5204E-01  0.4797E+02
  27.934  0.5082E-01  0.4797E+02
  27.944  0.4959E-01  0.4797E+02
  27.954  0.4837E-01  0.4797E+02
  27.964  0.4714E-01  0.4797E+02
  27.974  0.4591E-01  0.4797E+02
  27.984  0.4469E-01  0.4797E+02
  27.994  0.4347E-01  0.4797E+02
  28.004  0.4225E-01  0.4797E+02
  28.014  0.4105E-01  0.4797E+02
  28.024  0.3985E-01  0.4797E+02
  28.034  0.3866E-01  0.4797E+02
  28.044  0.3748E-01  0.4797E+02
  28.054  0.3631E-01  0.4797E+02
  28.064  0.3516E-01  0.4797E+02
  28.074  0.3401E-01  0.4797E+02
  28.084  0.3289E-01  0.4797E+02
  28.094  0.3178E-01  0.4797E+02
  28.104  0.3069E-01  0.4798E+02
  28.114  0.2961E-01  0.4798E+02
  28.124  0.2856E-01  0.4798E+02
  28.134  0.2752E-01  0.4798E+02
  28.144  0.2650E-01  0.4798E+02
  28.154  0.2551E-01  0.4798E+02
  28.164  0.2453E-01  0.4798E+02
  28.174  0.2358E-01  0.4798E+02
  28.184  0.2265E-01  0.4798E+02
  28.194  0.2174E-01  0.4798E+02
  28.204  0.2085E-01  0.4798E+02
  28.214  0.1999E-01  0.4798E+02
  28.224  0.1915E-01  0.4798E+02
  28.234  0.1833E-01  0.4798E+02
  28.244  0.1753E-01  0.4798E+02
  28.254  0.1676E-01  0.4798E+02
  28.264  0.1602E-01  0.4798E+02
  28.274  0.1529E-01  0.4798E+02
  28.284  0.1459E-01  0.4798E+02
  28.294  0.1391E-01  0.4798E+02
  28.304  0.1326E-01  0.4798E+02
  28.314  0.1263E-01  0.4798E+02
  28.324  0.1202E-01  0.4798E+02
  28.334  0.1143E-01  0.4798E+02
  28.344  0.1086E-01  0.4798E+02
  28.354  0.1032E-01  0.4798E+02
  28.364  0.9797E-02  0.4798E+02
  28.374  0.9295E-02  0.4798E+02
  28.384  0.8814E-02  0.4798E+02
  28.394  0.8353E-02  0.4798E+02
  28.404  0.7911E-02  0.4798E+02
  28.414  0.7489E-02  0.4798E+02
  28.424  0.7086E-02  0.4798E+02
  28.434  0.6701E-02  0.4798E+02
  28.444  0.6335E-02  0.4798E+02
  28.454  0.5985E-02  0.4798E+02
  28.464  0.5653E-02  0.4798E+02
  28.474  0.5337E-02  0.4798E+02
  28.484  0.5037E-02  0.4798E+02
  28.494  0.4753E-02  0.4798E+02
  28.504  0.4484E-02  0.4798E+02
  28.514  0.4230E-02  0.4798E+02
  28.524  0.3990E-02  0.4798E+02
  28.534  0.3764E-02  0.4798E+02
  28.544  0.3551E-02  0.4798E+02
  28.554  0.3351E-02  0.4798E+02
  28.564  0.3164E-02  0.4798E+02
  28.574  0.2989E-02  0.4798E+02
  28.584  0.2826E-02  0.4798E+02
  28.594  0.2673E-02  0.4798E+02
  28.604  0.2532E-02  0.4798E+02
  28.614  0.2402E-02  0.4798E+02
  28.624  0.2282E-02  0.4798E+02
  28.634  0.2171E-02  0.4798E+02
  28.644  0.2071E-02  0.4798E+02
  28.654  0.1979E-02  0.4798E+02
  28.664  0.1897E-02  0.4798E+02
  28.674  0.1824E-02  0.4798E+02
  28.684  0.1759E-02  0.4798E+02
  28.694  0.1702E-02  0.4798E+02
  28.704  0.1653E-02  0.4798E+02
  28.714  0.1612E-02  0.4798E+02
  28.724  0.1579E-02  0.4798E+02
  28.734  0.1553E-02  0.4798E+02
  28.744  0.1535E-02  0.4798E+02
  28.754  0.1524E-02  0.4798E+02
  28.764  0.1520E-02  0.4798E+02
  28.774  0.1522E-02  0.4798E+02
  28.784  0.1532E-02  0.4798E+02
  28.794  0.1548E-02  0.4798E+02
  28.804  0.1570E-02  0.4798E+02
  28.814  0.1599E-02  0.4798E+02
  28.824  0.1635E-02  0.4798E+02
  28.834  0.1677E-02  0.4798E+02
  28.844  0.1725E-02  0.4798E+02
  28.854  0.1780E-02  0.4798E+02
  28.864  0.1841E-02  0.4798E+02
  28.874  0.1908E-02  0.4798E+02
  28.884  0.1981E-02  0.4798E+02
  28.894  0.2061E-02  0.4798E+02
  28.904  0.2147E-02  0.4798E+02
  28.914  0.2239E-02  0.4798E+02
  28.924  0.2337E-02  0.4798E+02
  28.934  0.2441E-02  0.4798E+02
  28.944  0.2552E-02  0.4798E+02
  28.954  0.2669E-02  0.4798E+02
  28.964  0.2793E-02  0.4798E+02
  28.974  0.2922E-02  0.4798E+02
  28.984  0.3058E-02  0.4798E+02
  28.994  0.3200E-02  0.4798E+02
  29.004  0.3349E-02  0.4798E+02
  29.014  0.3504E-02  0.4798E+02
  29.024  0.3665E-02  0.4798E+02
  29.034  0.3832E-02  0.4798E+02
  29.044  0.4006E-02  0.4798E+02
  29.054  0.4186E-02  0.4798E+02
  29.064  0.4373E-02  0.4798E+02
  29.074  0.4565E-02  0.4798E+02
  29.084  0.4764E-02  0.4798E+02
  29.094  0.4969E-02  0.4798E+02
  29.104  0.5180E-02  0.4798E+02
  29.114  0.5396E-02  0.4798E+02
  29.124  0.5619E-02  0.4798E+02
  29.134  0.5848E-02  0.4798E+02
  29.144  0.6082E-02  0.4798E+02
  29.154  0.6322E-02  0.4798E+02
  29.164  0.6567E-02  0.4798E+02
  29.174  0.6817E-02  0.4798E+02
  29.184  0.7073E-02  0.4798E+02
  29.194  0.7333E-02  0.4798E+02
  29.204  0.7599E-02  0.4798E+02
  29.214  0.7868E-02  0.4798E+02
  29.224  0.8142E-02  0.4798E+02
  29.234  0.8420E-02  0.4798E+02
  29.244  0.8702E-02  0.4798E+02
  29.254  0.8987E-02  0.4798E+02
  29.264  0.9276E-02  0.4798E+02
  29.274  0.9567E-02  0.4798E+02
  29.284  0.9862E-02  0.4798E+02
  29.294  0.1016E-01  0.4798E+02
  29.304  0.1046E-01  0.4798E+02
  29.314  0.1076E-01  0.4798E+02
  29.324  0.1106E-01  0.4798E+02
  29.334  0.1136E-01  0.4798E+02
  29.344  0.1166E-01  0.4798E+02
  29.354  0.1196E-01  0.4798E+02
  29.364  0.1227E-01  0.4798E+02
  29.374  0.1257E-01  0.4798E+02
  29.384  0.1287E-01  0.4798E+02
  29.394  0.1316E-01  0.4799E+02
  29.404  0.1346E-01  0.4799E+02
  29.414  0.1375E-01  0.4799E+02
  29.424  0.1404E-01  0.4799E+02
  29.434  0.1433E-01  0.4799E+02
  29.444  0.1461E-01  0.4799E+02
  29.454  0.1489E-01  0.4799E+02
  29.464  0.1516E-01  0.4799E+02
  29.474  0.1543E-01  0.4799E+02
  29.484  0.1569E-01  0.4799E+02
  29.494  0.1595E-01  0.4799E+02
  29.504  0.1620E-01  0.4799E+02
  29.514  0.1644E-01  0.4799E+02
  29.524  0.1667E-01  0.4799E+02
  29.534  0.1690E-01  0.4799E+02
  29.544  0.1712E-01  0.4799E+02
  29.554  0.1733E-01  0.4799E+02
  29.564  0.1752E-01  0.4799E+02
  29.574  0.1771E-01  0.4799E+02
  29.584  0.1789E-01  0.4799E+02
  29.594  0.1806E-01  0.4799E+02
  29.604  0.1822E-01  0.4799E+02
  29.614  0.1837E-01  0.4799E+02
  29.624  0.1851E-01  0.4799E+02
  29.634  0.1863E-01  0.4799E+02
  29.644  0.1874E-01  0.4799E+02
  29.654  0.1884E-01  0.4799E+02
  29.664  0.1893E-01  0.4799E+02
  29.674  0.1901E-01  0.4799E+02
  29.684  0.1907E-01  0.4799E+02
  29.694  0.1912E-01  0.4799E+02
  29.704  0.1916E-01  0.4799E+02
  29.714  0.1918E-01  0.4799E+02
  29.724  0.1920E-01  0.4799E+02
  29.734  0.1920E-01  0.4799E+02
  29.744  0.1918E-01  0.4799E+02
  29.754  0.1916E-01  0.4799E+02
  29.764  0.1912E-01  0.4799E+02
  29.774  0.1906E-01  0.4799E+02
  29.784  0.1900E-01  0.4799E+02
  29.794  0.1892E-01  0.4799E+02
  29.804  0.1883E-01  0.4799E+02
  29.814  0.1873E-01  0.4799E+02
  29.824  0.1861E-01  0.4799E+02
  29.834  0.1849E-01  0.4799E+02
  29.844  0.1835E-01  0.4799E+02
  29.854  0.1820E-01  0.4799E+02
  29.864  0.1804E-01  0.4799E+02
  29.874  0.1787E-01  0.4799E+02
  29.884  0.1769E-01  0.4799E+02
  29.894  0.1750E-01  0.4799E+02
  29.904  0.1730E-01  0.4799E+02
  29.914  0.1709E-01  0.4799E+02
  29.924  0.1687E-01  0.4799E+02
  29.934  0.1664E-01  0.4799E+02
  29.944  0.1641E-01  0.4799E+02
  29.954  0.1617E-01  0.4799E+02
  29.964  0.1592E-01  0.4800E+02
  29.974  0.1566E-01  0.4800E+02
  29.984  0.1540E-01  0.4800E+02
  29.994  0.1513E-01  0.4800E+02
  30.004  0.1485E-01  0.4800E+02
  30.014  0.1457E-01  0.4800E+02
  30.024  0.1429E-01  0.4800E+02
  30.034  0.1400E-01  0.4800E+02
  30.044  0.1371E-01  0.4800E+02
  30.054  0.1342E-01  0.4800E+02
  30.064  0.1312E-01  0.4800E+02
  30.074  0.1282E-01  0.4800E+02
  30.084  0.1252E-01  0.4800E+02
  30.094  0.1222E-01  0.4800E+02
  30.104  0.1192E-01  0.4800E+02
  30.114  0.1162E-01  0.4800E+02
  30.124  0.1132E-01  0.4800E+02
  30.134  0.1101E-01  0.4800E+02
  30.144  0.1071E-01  0.4800E+02
  30.154  0.1041E-01  0.4800E+02
  30.164  0.1011E-01  0.4800E+02
  30.174  0.9818E-02  0.4800E+02
  30.184  0.9524E-02  0.4800E+02
  30.194  0.9232E-02  0.4800E+02
  30.204  0.8943E-02  0.4800E+02
  30.214  0.8658E-02  0.4800E+02
  30.224  0.8375E-02  0.4800E+02
  30.234  0.8097E-02  0.4800E+02
  30.244  0.7823E-02  0.4800E+02
  30.254  0.7552E-02  0.4800E+02
  30.264  0.7286E-02  0.4800E+02
  30.274  0.7025E-02  0.4800E+02
  30.284  0.6769E-02  0.4800E+02
  30.294  0.6517E-02  0.4800E+02
  30.304  0.6271E-02  0.4800E+02
  30.314  0.6030E-02  0.4800E+02
  30.324  0.5794E-02  0.4800E+02
  30.334  0.5564E-02  0.4800E+02
  30.344  0.5339E-02  0.4800E+02
  30.354  0.5120E-02  0.4800E+02
  30.364  0.4906E-02  0.4800E+02
  30.374  0.4699E-02  0.4800E+02
  30.384  0.4497E-02  0.4800E+02
  30.394  0.4301E-02  0.4800E+02
  30.404  0.4110E-02  0.4800E+02
  30.414  0.3925E-02  0.4800E+02
  30.424  0.3747E-02  0.4800E+02
  30.434  0.3573E-02  0.4800E+02
  30.444  0.3406E-02  0.4800E+02
  30.454  0.3244E-02  0.4800E+02
  30.464  0.3088E-02  0.4800E+02
  30.474  0.2937E-02  0.4800E+02
  30.484  0.2792E-02  0.4800E+02
  30.494  0.2652E-02  0.4800E+02
  30.504  0.2518E-02  0.4800E+02
  30.514  0.2389E-02  0.4800E+02
  30.524  0.2264E-02  0.4800E+02
  30.534  0.2145E-02  0.4800E+02
  30.544  0.2031E-02  0.4800E+02
  30.554  0.1922E-02  0.4800E+02
  30.564  0.1817E-02  0.4800E+02
  30.574  0.1716E-02  0.4800E+02
  30.584  0.1621E-02  0.4800E+02
  30.594  0.1529E-02  0.4800E+02
  30.604  0.1442E-02  0.4800E+02
  30.614  0.1359E-02  0.4800E+02
  30.624  0.1279E-02  0.4800E+02
  30.634  0.1204E-02  0.4800E+02
  30.644  0.1132E-02  0.4800E+02
  30.654  0.1064E-02  0.4800E+02
  30.664  0.9990E-03  0.4800E+02
  30.674  0.9375E-03  0.4800E+02
  30.684  0.8792E-03  0.4800E+02
  30.694  0.8240E-03  0.4800E+02
  30.704  0.7717E-03  0.4800E+02
  30.714  0.7223E-03  0.4800E+02
  30.724  0.6755E-03  0.4800E+02
  30.734  0.6314E-03  0.4800E+02
  30.744  0.5897E-03  0.4800E+02
  30.754  0.5505E-03  0.4800E+02
  30.764  0.5135E-03  0.4800E+02
  30.774  0.4786E-03  0.4800E+02
  30.784  0.4458E-03  0.4800E+02
  30.794  0.4150E-03  0.4800E+02
  30.804  0.3861E-03  0.4800E+02
  30.814  0.3589E-03  0.4800E+02
  30.824  0.3334E-03  0.4800E+02
  30.834  0.3095E-03  0.4800E+02
  30.844  0.2872E-03  0.4800E+02
  30.854  0.2662E-03  0.4800E+02
  30.864  0.2467E-03  0.4800E+02
  30.874  0.2284E-03  0.4800E+02
  30.884  0.2113E-03  0.4800E+02
  30.894  0.1954E-03  0.4800E+02
  30.904  0.1805E-03  0.4800E+02
  30.914  0.1667E-03  0.4800E+02
  30.924  0.1538E-03  0.4800E+02
  30.934  0.1418E-03  0.4800E+02
  30.944  0.1307E-03  0.4800E+02
  30.954  0.1204E-03  0.4800E+02
  30.964  0.1108E-03  0.4800E+02
  30.974  0.1019E-03  0.4800E+02
  30.984  0.9362E-04  0.4800E+02
  30.994  0.8598E-04  0.4800E+02
  31.004  0.7891E-04  0.4800E+02
  31.014  0.7237E-04  0.4800E+02
  31.024  0.6633E-04  0.4800E+02
  31.034  0.6075E-04  0.4800E+02
  31.044  0.5561E-04  0.4800E+02
  31.054  0.5086E-04  0.4800E+02
  31.064  0.4649E-04  0.4800E+02
  31.074  0.4247E-04  0.4800E+02
  31.084  0.3877E-04  0.4800E+02
  31.094  0.3536E-04  0.4800E+02
  31.104  0.3224E-04  0.4800E+02
  31.114  0.2937E-04  0.4800E+02
  31.124  0.2673E-04  0.4800E+02
  31.134  0.2432E-04  0.4800E+02
  31.144  0.2211E-04  0.4800E+02
  31.154  0.2009E-04  0.4800E+02
  31.164  0.1824E-04  0.4800E+02
  31.174  0.1655E-04  0.4800E+02
  31.184  0.1500E-04  0.4800E+02
  31.194  0.1360E-04  0.4800E+02
  31.204  0.1231E-04  0.4800E+02
  31.214  0.1114E-04  0.4800E+02
  31.224  0.1007E-04  0.4800E+02
  31.234  0.9102E-05  0.4800E+02
  31.244  0.8219E-05  0.4800E+02
  31.254  0.7417E-05  0.4800E+02
  31.264  0.6689E-05  0.4800E+02
  31.274  0.6028E-05  0.4800E+02
  31.284  0.5428E-05  0.4800E+02
  31.294  0.4885E-05  0.4800E+02
  31.304  0.4394E-05  0.4800E+02
  31.314  0.3949E-05  0.4800E+02
  31.324  0.3547E-05  0.4800E+02
  31.334  0.3183E-05  0.4800E+02
  31.344  0.2855E-05  0.4800E+02
  31.354  0.2559E-05  0.4800E+02
