#  E (eV)   dos(E)     Int dos(E) EFermi =    7.984 eV
 -15.074  0.5424E-03  0.5424E-05
 -15.064  0.6310E-03  0.1173E-04
 -15.054  0.7333E-03  0.1907E-04
 -15.044  0.8511E-03  0.2758E-04
 -15.034  0.9867E-03  0.3744E-04
 -15.024  0.1143E-02  0.4887E-04
 -15.014  0.1322E-02  0.6209E-04
 -15.004  0.1527E-02  0.7736E-04
 -14.994  0.1762E-02  0.9498E-04
 -14.984  0.2031E-02  0.1153E-03
 -14.974  0.2339E-02  0.1387E-03
 -14.964  0.2689E-02  0.1656E-03
 -14.954  0.3089E-02  0.1965E-03
 -14.944  0.3545E-02  0.2319E-03
 -14.934  0.4062E-02  0.2725E-03
 -14.924  0.4650E-02  0.3190E-03
 -14.914  0.5317E-02  0.3722E-03
 -14.904  0.6072E-02  0.4329E-03
 -14.894  0.6927E-02  0.5022E-03
 -14.884  0.7893E-02  0.5811E-03
 -14.874  0.8984E-02  0.6710E-03
 -14.864  0.1021E-01  0.7731E-03
 -14.854  0.1160E-01  0.8891E-03
 -14.844  0.1316E-01  0.1021E-02
 -14.834  0.1490E-01  0.1170E-02
 -14.824  0.1687E-01  0.1338E-02
 -14.814  0.1907E-01  0.1529E-02
 -14.804  0.2153E-01  0.1744E-02
 -14.794  0.2428E-01  0.1987E-02
 -14.784  0.2735E-01  0.2261E-02
 -14.774  0.3078E-01  0.2568E-02
 -14.764  0.3459E-01  0.2914E-02
 -14.754  0.3884E-01  0.3303E-02
 -14.744  0.4355E-01  0.3738E-02
 -14.734  0.4879E-01  0.4226E-02
 -14.724  0.5459E-01  0.4772E-02
 -14.714  0.6101E-01  0.5382E-02
 -14.704  0.6811E-01  0.6063E-02
 -14.694  0.7595E-01  0.6823E-02
 -14.684  0.8460E-01  0.7669E-02
 -14.674  0.9413E-01  0.8610E-02
 -14.664  0.1046E+00  0.9656E-02
 -14.654  0.1161E+00  0.1082E-01
 -14.644  0.1288E+00  0.1211E-01
 -14.634  0.1426E+00  0.1353E-01
 -14.624  0.1578E+00  0.1511E-01
 -14.614  0.1744E+00  0.1685E-01
 -14.604  0.1926E+00  0.1878E-01
 -14.594  0.2124E+00  0.2090E-01
 -14.584  0.2339E+00  0.2324E-01
 -14.574  0.2574E+00  0.2582E-01
 -14.564  0.2829E+00  0.2865E-01
 -14.554  0.3106E+00  0.3175E-01
 -14.544  0.3406E+00  0.3516E-01
 -14.534  0.3732E+00  0.3889E-01
 -14.524  0.4084E+00  0.4297E-01
 -14.514  0.4464E+00  0.4744E-01
 -14.504  0.4874E+00  0.5231E-01
 -14.494  0.5316E+00  0.5763E-01
 -14.484  0.5793E+00  0.6342E-01
 -14.474  0.6304E+00  0.6972E-01
 -14.464  0.6854E+00  0.7658E-01
 -14.454  0.7444E+00  0.8402E-01
 -14.444  0.8076E+00  0.9210E-01
 -14.434  0.8751E+00  0.1008E+00
 -14.424  0.9474E+00  0.1103E+00
 -14.414  0.1024E+01  0.1206E+00
 -14.404  0.1107E+01  0.1316E+00
 -14.394  0.1194E+01  0.1436E+00
 -14.384  0.1287E+01  0.1565E+00
 -14.374  0.1386E+01  0.1703E+00
 -14.364  0.1491E+01  0.1852E+00
 -14.354  0.1602E+01  0.2012E+00
 -14.344  0.1720E+01  0.2184E+00
 -14.334  0.1844E+01  0.2369E+00
 -14.324  0.1976E+01  0.2566E+00
 -14.314  0.2114E+01  0.2778E+00
 -14.304  0.2260E+01  0.3004E+00
 -14.294  0.2413E+01  0.3245E+00
 -14.284  0.2574E+01  0.3503E+00
 -14.274  0.2744E+01  0.3777E+00
 -14.264  0.2921E+01  0.4069E+00
 -14.254  0.3106E+01  0.4380E+00
 -14.244  0.3300E+01  0.4710E+00
 -14.234  0.3503E+01  0.5060E+00
 -14.224  0.3714E+01  0.5431E+00
 -14.214  0.3934E+01  0.5825E+00
 -14.204  0.4163E+01  0.6241E+00
 -14.194  0.4401E+01  0.6681E+00
 -14.184  0.4648E+01  0.7146E+00
 -14.174  0.4903E+01  0.7636E+00
 -14.164  0.5168E+01  0.8153E+00
 -14.154  0.5442E+01  0.8697E+00
 -14.144  0.5725E+01  0.9270E+00
 -14.134  0.6016E+01  0.9871E+00
 -14.124  0.6316E+01  0.1050E+01
 -14.114  0.6625E+01  0.1117E+01
 -14.104  0.6942E+01  0.1186E+01
 -14.094  0.7268E+01  0.1259E+01
 -14.084  0.7602E+01  0.1335E+01
 -14.074  0.7943E+01  0.1414E+01
 -14.064  0.8292E+01  0.1497E+01
 -14.054  0.8648E+01  0.1583E+01
 -14.044  0.9011E+01  0.1674E+01
 -14.034  0.9380E+01  0.1767E+01
 -14.024  0.9755E+01  0.1865E+01
 -14.014  0.1014E+02  0.1966E+01
 -14.004  0.1052E+02  0.2072E+01
 -13.994  0.1091E+02  0.2181E+01
 -13.984  0.1131E+02  0.2294E+01
 -13.974  0.1171E+02  0.2411E+01
 -13.964  0.1211E+02  0.2532E+01
 -13.954  0.1252E+02  0.2657E+01
 -13.944  0.1292E+02  0.2786E+01
 -13.934  0.1333E+02  0.2920E+01
 -13.924  0.1374E+02  0.3057E+01
 -13.914  0.1415E+02  0.3199E+01
 -13.904  0.1456E+02  0.3344E+01
 -13.894  0.1496E+02  0.3494E+01
 -13.884  0.1537E+02  0.3648E+01
 -13.874  0.1577E+02  0.3805E+01
 -13.864  0.1617E+02  0.3967E+01
 -13.854  0.1657E+02  0.4133E+01
 -13.844  0.1696E+02  0.4302E+01
 -13.834  0.1734E+02  0.4476E+01
 -13.824  0.1772E+02  0.4653E+01
 -13.814  0.1809E+02  0.4834E+01
 -13.804  0.1845E+02  0.5018E+01
 -13.794  0.1881E+02  0.5206E+01
 -13.784  0.1915E+02  0.5398E+01
 -13.774  0.1949E+02  0.5593E+01
 -13.764  0.1981E+02  0.5791E+01
 -13.754  0.2013E+02  0.5992E+01
 -13.744  0.2043E+02  0.6196E+01
 -13.734  0.2072E+02  0.6404E+01
 -13.724  0.2100E+02  0.6614E+01
 -13.714  0.2126E+02  0.6826E+01
 -13.704  0.2151E+02  0.7041E+01
 -13.694  0.2174E+02  0.7259E+01
 -13.684  0.2196E+02  0.7478E+01
 -13.674  0.2216E+02  0.7700E+01
 -13.664  0.2234E+02  0.7923E+01
 -13.654  0.2251E+02  0.8148E+01
 -13.644  0.2266E+02  0.8375E+01
 -13.634  0.2280E+02  0.8603E+01
 -13.624  0.2291E+02  0.8832E+01
 -13.614  0.2301E+02  0.9062E+01
 -13.604  0.2309E+02  0.9293E+01
 -13.594  0.2315E+02  0.9525E+01
 -13.584  0.2320E+02  0.9757E+01
 -13.574  0.2322E+02  0.9989E+01
 -13.564  0.2323E+02  0.1022E+02
 -13.554  0.2321E+02  0.1045E+02
 -13.544  0.2318E+02  0.1068E+02
 -13.534  0.2313E+02  0.1092E+02
 -13.524  0.2306E+02  0.1115E+02
 -13.514  0.2297E+02  0.1138E+02
 -13.504  0.2286E+02  0.1161E+02
 -13.494  0.2274E+02  0.1183E+02
 -13.484  0.2259E+02  0.1206E+02
 -13.474  0.2243E+02  0.1228E+02
 -13.464  0.2225E+02  0.1251E+02
 -13.454  0.2206E+02  0.1273E+02
 -13.444  0.2185E+02  0.1294E+02
 -13.434  0.2162E+02  0.1316E+02
 -13.424  0.2138E+02  0.1337E+02
 -13.414  0.2112E+02  0.1359E+02
 -13.404  0.2085E+02  0.1379E+02
 -13.394  0.2056E+02  0.1400E+02
 -13.384  0.2026E+02  0.1420E+02
 -13.374  0.1995E+02  0.1440E+02
 -13.364  0.1963E+02  0.1460E+02
 -13.354  0.1929E+02  0.1479E+02
 -13.344  0.1895E+02  0.1498E+02
 -13.334  0.1859E+02  0.1517E+02
 -13.324  0.1823E+02  0.1535E+02
 -13.314  0.1785E+02  0.1553E+02
 -13.304  0.1747E+02  0.1570E+02
 -13.294  0.1709E+02  0.1587E+02
 -13.284  0.1669E+02  0.1604E+02
 -13.274  0.1629E+02  0.1620E+02
 -13.264  0.1589E+02  0.1636E+02
 -13.254  0.1548E+02  0.1652E+02
 -13.244  0.1507E+02  0.1667E+02
 -13.234  0.1466E+02  0.1681E+02
 -13.224  0.1424E+02  0.1696E+02
 -13.214  0.1383E+02  0.1709E+02
 -13.204  0.1341E+02  0.1723E+02
 -13.194  0.1300E+02  0.1736E+02
 -13.184  0.1259E+02  0.1748E+02
 -13.174  0.1217E+02  0.1761E+02
 -13.164  0.1177E+02  0.1772E+02
 -13.154  0.1136E+02  0.1784E+02
 -13.144  0.1096E+02  0.1795E+02
 -13.134  0.1056E+02  0.1805E+02
 -13.124  0.1017E+02  0.1815E+02
 -13.114  0.9779E+01  0.1825E+02
 -13.104  0.9397E+01  0.1835E+02
 -13.094  0.9022E+01  0.1844E+02
 -13.084  0.8653E+01  0.1852E+02
 -13.074  0.8291E+01  0.1861E+02
 -13.064  0.7937E+01  0.1869E+02
 -13.054  0.7591E+01  0.1876E+02
 -13.044  0.7252E+01  0.1883E+02
 -13.034  0.6922E+01  0.1890E+02
 -13.024  0.6601E+01  0.1897E+02
 -13.014  0.6288E+01  0.1903E+02
 -13.004  0.5984E+01  0.1909E+02
 -12.994  0.5689E+01  0.1915E+02
 -12.984  0.5403E+01  0.1920E+02
 -12.974  0.5127E+01  0.1925E+02
 -12.964  0.4860E+01  0.1930E+02
 -12.954  0.4602E+01  0.1935E+02
 -12.944  0.4353E+01  0.1939E+02
 -12.934  0.4114E+01  0.1943E+02
 -12.924  0.3884E+01  0.1947E+02
 -12.914  0.3663E+01  0.1951E+02
 -12.904  0.3451E+01  0.1954E+02
 -12.894  0.3248E+01  0.1958E+02
 -12.884  0.3054E+01  0.1961E+02
 -12.874  0.2868E+01  0.1963E+02
 -12.864  0.2691E+01  0.1966E+02
 -12.854  0.2522E+01  0.1969E+02
 -12.844  0.2362E+01  0.1971E+02
 -12.834  0.2209E+01  0.1973E+02
 -12.824  0.2064E+01  0.1975E+02
 -12.814  0.1926E+01  0.1977E+02
 -12.804  0.1796E+01  0.1979E+02
 -12.794  0.1673E+01  0.1981E+02
 -12.784  0.1557E+01  0.1982E+02
 -12.774  0.1447E+01  0.1984E+02
 -12.764  0.1343E+01  0.1985E+02
 -12.754  0.1246E+01  0.1986E+02
 -12.744  0.1154E+01  0.1987E+02
 -12.734  0.1068E+01  0.1989E+02
 -12.724  0.9877E+00  0.1990E+02
 -12.714  0.9122E+00  0.1990E+02
 -12.704  0.8415E+00  0.1991E+02
 -12.694  0.7755E+00  0.1992E+02
 -12.684  0.7139E+00  0.1993E+02
 -12.674  0.6565E+00  0.1993E+02
 -12.664  0.6030E+00  0.1994E+02
 -12.654  0.5533E+00  0.1995E+02
 -12.644  0.5071E+00  0.1995E+02
 -12.634  0.4643E+00  0.1996E+02
 -12.624  0.4246E+00  0.1996E+02
 -12.614  0.3879E+00  0.1996E+02
 -12.604  0.3540E+00  0.1997E+02
 -12.594  0.3227E+00  0.1997E+02
 -12.584  0.2938E+00  0.1997E+02
 -12.574  0.2673E+00  0.1998E+02
 -12.564  0.2428E+00  0.1998E+02
 -12.554  0.2204E+00  0.1998E+02
 -12.544  0.1998E+00  0.1998E+02
 -12.534  0.1809E+00  0.1998E+02
 -12.524  0.1636E+00  0.1999E+02
 -12.514  0.1479E+00  0.1999E+02
 -12.504  0.1334E+00  0.1999E+02
 -12.494  0.1203E+00  0.1999E+02
 -12.484  0.1083E+00  0.1999E+02
 -12.474  0.9746E-01  0.1999E+02
 -12.464  0.8757E-01  0.1999E+02
 -12.454  0.7859E-01  0.1999E+02
 -12.444  0.7046E-01  0.1999E+02
 -12.434  0.6309E-01  0.2000E+02
 -12.424  0.5644E-01  0.2000E+02
 -12.414  0.5043E-01  0.2000E+02
 -12.404  0.4500E-01  0.2000E+02
 -12.394  0.4012E-01  0.2000E+02
 -12.384  0.3573E-01  0.2000E+02
 -12.374  0.3178E-01  0.2000E+02
 -12.364  0.2823E-01  0.2000E+02
 -12.354  0.2505E-01  0.2000E+02
 -12.344  0.2221E-01  0.2000E+02
 -12.334  0.1967E-01  0.2000E+02
 -12.324  0.1739E-01  0.2000E+02
 -12.314  0.1536E-01  0.2000E+02
 -12.304  0.1356E-01  0.2000E+02
 -12.294  0.1195E-01  0.2000E+02
 -12.284  0.1052E-01  0.2000E+02
 -12.274  0.9253E-02  0.2000E+02
 -12.264  0.8128E-02  0.2000E+02
 -12.254  0.7131E-02  0.2000E+02
 -12.244  0.6250E-02  0.2000E+02
 -12.234  0.5471E-02  0.2000E+02
 -12.224  0.4784E-02  0.2000E+02
 -12.214  0.4178E-02  0.2000E+02
 -12.204  0.3645E-02  0.2000E+02
 -12.194  0.3176E-02  0.2000E+02
 -12.184  0.2765E-02  0.2000E+02
 -12.174  0.2404E-02  0.2000E+02
 -12.164  0.2087E-02  0.2000E+02
 -12.154  0.1810E-02  0.2000E+02
 -12.144  0.1569E-02  0.2000E+02
 -12.134  0.1357E-02  0.2000E+02
 -12.124  0.1173E-02  0.2000E+02
 -12.114  0.1013E-02  0.2000E+02
 -12.104  0.8736E-03  0.2000E+02
 -12.094  0.7526E-03  0.2000E+02
 -12.084  0.6475E-03  0.2000E+02
 -12.074  0.5565E-03  0.2000E+02
 -12.064  0.4777E-03  0.2000E+02
 -12.054  0.4096E-03  0.2000E+02
 -12.044  0.3508E-03  0.2000E+02
 -12.034  0.3001E-03  0.2000E+02
 -12.024  0.2564E-03  0.2000E+02
 -12.014  0.2188E-03  0.2000E+02
 -12.004  0.1865E-03  0.2000E+02
 -11.994  0.1588E-03  0.2000E+02
 -11.984  0.1351E-03  0.2000E+02
 -11.974  0.1147E-03  0.2000E+02
 -11.964  0.9736E-04  0.2000E+02
 -11.954  0.8252E-04  0.2000E+02
 -11.944  0.6985E-04  0.2000E+02
 -11.934  0.5906E-04  0.2000E+02
 -11.924  0.4988E-04  0.2000E+02
 -11.914  0.4208E-04  0.2000E+02
 -11.904  0.3546E-04  0.2000E+02
 -11.894  0.2984E-04  0.2000E+02
 -11.884  0.2508E-04  0.2000E+02
 -11.874  0.2106E-04  0.2000E+02
 -11.864  0.1766E-04  0.2000E+02
 -11.854  0.1480E-04  0.2000E+02
 -11.844  0.1238E-04  0.2000E+02
 -11.834  0.1035E-04  0.2000E+02
 -11.824  0.8636E-05  0.2000E+02
 -11.814  0.7200E-05  0.2000E+02
 -11.804  0.5996E-05  0.2000E+02
 -11.794  0.4988E-05  0.2000E+02
 -11.784  0.4144E-05  0.2000E+02
 -11.774  0.3439E-05  0.2000E+02
 -11.764  0.2851E-05  0.2000E+02
 -11.754  0.2360E-05  0.2000E+02
 -11.744  0.1952E-05  0.2000E+02
 -11.734  0.1612E-05  0.2000E+02
 -11.724  0.1330E-05  0.2000E+02
 -11.714  0.1096E-05  0.2000E+02
 -11.704  0.9019E-06  0.2000E+02
 -11.694  0.7415E-06  0.2000E+02
 -11.684  0.6089E-06  0.2000E+02
 -11.674  0.4994E-06  0.2000E+02
 -11.664  0.4091E-06  0.2000E+02
 -11.654  0.3347E-06  0.2000E+02
 -11.644  0.2736E-06  0.2000E+02
 -11.634  0.2233E-06  0.2000E+02
 -11.624  0.1821E-06  0.2000E+02
 -11.614  0.1483E-06  0.2000E+02
 -11.604  0.1206E-06  0.2000E+02
 -11.594  0.9799E-07  0.2000E+02
 -11.584  0.7952E-07  0.2000E+02
 -11.574  0.6446E-07  0.2000E+02
 -11.564  0.5218E-07  0.2000E+02
 -11.554  0.4220E-07  0.2000E+02
 -11.544  0.3408E-07  0.2000E+02
 -11.534  0.2750E-07  0.2000E+02
 -11.524  0.2216E-07  0.2000E+02
 -11.514  0.1783E-07  0.2000E+02
 -11.504  0.1433E-07  0.2000E+02
 -11.494  0.1151E-07  0.2000E+02
 -11.484  0.9230E-08  0.2000E+02
 -11.474  0.7394E-08  0.2000E+02
 -11.464  0.5916E-08  0.2000E+02
 -11.454  0.4727E-08  0.2000E+02
 -11.444  0.3773E-08  0.2000E+02
 -11.434  0.3008E-08  0.2000E+02
 -11.424  0.2396E-08  0.2000E+02
 -11.414  0.1905E-08  0.2000E+02
 -11.404  0.1514E-08  0.2000E+02
 -11.394  0.1201E-08  0.2000E+02
 -11.384  0.9519E-09  0.2000E+02
 -11.374  0.7535E-09  0.2000E+02
 -11.364  0.5958E-09  0.2000E+02
 -11.354  0.4705E-09  0.2000E+02
 -11.344  0.3711E-09  0.2000E+02
 -11.334  0.2924E-09  0.2000E+02
 -11.324  0.2301E-09  0.2000E+02
 -11.314  0.1809E-09  0.2000E+02
 -11.304  0.1420E-09  0.2000E+02
 -11.294  0.1113E-09  0.2000E+02
 -11.284  0.8720E-10  0.2000E+02
 -11.274  0.6822E-10  0.2000E+02
 -11.264  0.5330E-10  0.2000E+02
 -11.254  0.4160E-10  0.2000E+02
 -11.244  0.3242E-10  0.2000E+02
 -11.234  0.2524E-10  0.2000E+02
 -11.224  0.1963E-10  0.2000E+02
 -11.214  0.1525E-10  0.2000E+02
 -11.204  0.1183E-10  0.2000E+02
 -11.194  0.9166E-11  0.2000E+02
 -11.184  0.7094E-11  0.2000E+02
 -11.174  0.5484E-11  0.2000E+02
 -11.164  0.4235E-11  0.2000E+02
 -11.154  0.3266E-11  0.2000E+02
 -11.144  0.2516E-11  0.2000E+02
 -11.134  0.1935E-11  0.2000E+02
 -11.124  0.1487E-11  0.2000E+02
 -11.114  0.1142E-11  0.2000E+02
 -11.104  0.8752E-12  0.2000E+02
 -11.094  0.6701E-12  0.2000E+02
 -11.084  0.5125E-12  0.2000E+02
 -11.074  0.3915E-12  0.2000E+02
 -11.064  0.2987E-12  0.2000E+02
 -11.054  0.2277E-12  0.2000E+02
 -11.044  0.1733E-12  0.2000E+02
 -11.034  0.1318E-12  0.2000E+02
 -11.024  0.1000E-12  0.2000E+02
 -11.014  0.7588E-13  0.2000E+02
 -11.004  0.5749E-13  0.2000E+02
 -10.994  0.4350E-13  0.2000E+02
 -10.984  0.3288E-13  0.2000E+02
 -10.974  0.2482E-13  0.2000E+02
 -10.964  0.1871E-13  0.2000E+02
 -10.954  0.1409E-13  0.2000E+02
 -10.944  0.1060E-13  0.2000E+02
 -10.934  0.7963E-14  0.2000E+02
 -10.924  0.5975E-14  0.2000E+02
 -10.914  0.4478E-14  0.2000E+02
 -10.904  0.3352E-14  0.2000E+02
 -10.894  0.2507E-14  0.2000E+02
 -10.884  0.1872E-14  0.2000E+02
 -10.874  0.1396E-14  0.2000E+02
 -10.864  0.1040E-14  0.2000E+02
 -10.854  0.7742E-15  0.2000E+02
 -10.844  0.5754E-15  0.2000E+02
 -10.834  0.4272E-15  0.2000E+02
 -10.824  0.3168E-15  0.2000E+02
 -10.814  0.2346E-15  0.2000E+02
 -10.804  0.1735E-15  0.2000E+02
 -10.794  0.1282E-15  0.2000E+02
 -10.784  0.9463E-16  0.2000E+02
 -10.774  0.6975E-16  0.2000E+02
 -10.764  0.5135E-16  0.2000E+02
 -10.754  0.3776E-16  0.2000E+02
 -10.744  0.2773E-16  0.2000E+02
 -10.734  0.2034E-16  0.2000E+02
 -10.724  0.1491E-16  0.2000E+02
 -10.714  0.1091E-16  0.2000E+02
 -10.704  0.7974E-17  0.2000E+02
 -10.694  0.5822E-17  0.2000E+02
 -10.684  0.4245E-17  0.2000E+02
 -10.674  0.3092E-17  0.2000E+02
 -10.664  0.2250E-17  0.2000E+02
 -10.654  0.1635E-17  0.2000E+02
 -10.644  0.1186E-17  0.2000E+02
 -10.634  0.8599E-18  0.2000E+02
 -10.624  0.6226E-18  0.2000E+02
 -10.614  0.4502E-18  0.2000E+02
 -10.604  0.3252E-18  0.2000E+02
 -10.594  0.2346E-18  0.2000E+02
 -10.584  0.1691E-18  0.2000E+02
 -10.574  0.1217E-18  0.2000E+02
 -10.564  0.8746E-19  0.2000E+02
 -10.554  0.6280E-19  0.2000E+02
 -10.544  0.4504E-19  0.2000E+02
 -10.534  0.3226E-19  0.2000E+02
 -10.524  0.2308E-19  0.2000E+02
 -10.514  0.1649E-19  0.2000E+02
 -10.504  0.1177E-19  0.2000E+02
 -10.494  0.8391E-20  0.2000E+02
 -10.484  0.5974E-20  0.2000E+02
 -10.474  0.4249E-20  0.2000E+02
 -10.464  0.3018E-20  0.2000E+02
 -10.454  0.2141E-20  0.2000E+02
 -10.444  0.1517E-20  0.2000E+02
 -10.434  0.1074E-20  0.2000E+02
 -10.424  0.7592E-21  0.2000E+02
 -10.414  0.5361E-21  0.2000E+02
 -10.404  0.3781E-21  0.2000E+02
 -10.394  0.2663E-21  0.2000E+02
 -10.384  0.1874E-21  0.2000E+02
 -10.374  0.1317E-21  0.2000E+02
 -10.364  0.9241E-22  0.2000E+02
 -10.354  0.6479E-22  0.2000E+02
 -10.344  0.4536E-22  0.2000E+02
 -10.334  0.3173E-22  0.2000E+02
 -10.324  0.2216E-22  0.2000E+02
 -10.314  0.1546E-22  0.2000E+02
 -10.304  0.1078E-22  0.2000E+02
 -10.294  0.7500E-23  0.2000E+02
 -10.284  0.5214E-23  0.2000E+02
 -10.274  0.3621E-23  0.2000E+02
 -10.264  0.2511E-23  0.2000E+02
 -10.254  0.1740E-23  0.2000E+02
 -10.244  0.1204E-23  0.2000E+02
 -10.234  0.8317E-24  0.2000E+02
 -10.224  0.5741E-24  0.2000E+02
 -10.214  0.3958E-24  0.2000E+02
 -10.204  0.2725E-24  0.2000E+02
 -10.194  0.1874E-24  0.2000E+02
 -10.184  0.1288E-24  0.2000E+02
 -10.174  0.8835E-25  0.2000E+02
 -10.164  0.6055E-25  0.2000E+02
 -10.154  0.4144E-25  0.2000E+02
 -10.144  0.2833E-25  0.2000E+02
 -10.134  0.1935E-25  0.2000E+02
 -10.124  0.1320E-25  0.2000E+02
 -10.114  0.8990E-26  0.2000E+02
 -10.104  0.6117E-26  0.2000E+02
 -10.094  0.4157E-26  0.2000E+02
 -10.084  0.2822E-26  0.2000E+02
 -10.074  0.1913E-26  0.2000E+02
 -10.064  0.1295E-26  0.2000E+02
 -10.054  0.8761E-27  0.2000E+02
 -10.044  0.5919E-27  0.2000E+02
 -10.034  0.3994E-27  0.2000E+02
 -10.024  0.2691E-27  0.2000E+02
 -10.014  0.1812E-27  0.2000E+02
 -10.004  0.1218E-27  0.2000E+02
  -9.994  0.8179E-28  0.2000E+02
  -9.984  0.5486E-28  0.2000E+02
  -9.974  0.3675E-28  0.2000E+02
  -9.964  0.2459E-28  0.2000E+02
  -9.954  0.1643E-28  0.2000E+02
  -9.944  0.1097E-28  0.2000E+02
  -9.934  0.7314E-29  0.2000E+02
  -9.924  0.4870E-29  0.2000E+02
  -9.914  0.3239E-29  0.2000E+02
  -9.904  0.2152E-29  0.2000E+02
  -9.894  0.1428E-29  0.2000E+02
  -9.884  0.9464E-30  0.2000E+02
  -9.874  0.6265E-30  0.2000E+02
  -9.864  0.4142E-30  0.2000E+02
  -9.854  0.2735E-30  0.2000E+02
  -9.844  0.1804E-30  0.2000E+02
  -9.834  0.1188E-30  0.2000E+02
  -9.824  0.7820E-31  0.2000E+02
  -9.814  0.5140E-31  0.2000E+02
  -9.804  0.3374E-31  0.2000E+02
  -9.794  0.2212E-31  0.2000E+02
  -9.784  0.1449E-31  0.2000E+02
  -9.774  0.9474E-32  0.2000E+02
  -9.764  0.6190E-32  0.2000E+02
  -9.754  0.4039E-32  0.2000E+02
  -9.744  0.2632E-32  0.2000E+02
  -9.734  0.1713E-32  0.2000E+02
  -9.724  0.1114E-32  0.2000E+02
  -9.714  0.7235E-33  0.2000E+02
  -9.704  0.4692E-33  0.2000E+02
  -9.694  0.3040E-33  0.2000E+02
  -9.684  0.1967E-33  0.2000E+02
  -9.674  0.1271E-33  0.2000E+02
  -9.664  0.8207E-34  0.2000E+02
  -9.654  0.5291E-34  0.2000E+02
  -9.644  0.3407E-34  0.2000E+02
  -9.634  0.2192E-34  0.2000E+02
  -9.624  0.1408E-34  0.2000E+02
  -9.614  0.9035E-35  0.2000E+02
  -9.604  0.5791E-35  0.2000E+02
  -9.594  0.3707E-35  0.2000E+02
  -9.584  0.2370E-35  0.2000E+02
  -9.574  0.1514E-35  0.2000E+02
  -9.564  0.9654E-36  0.2000E+02
  -9.554  0.6150E-36  0.2000E+02
  -9.544  0.3914E-36  0.2000E+02
  -9.534  0.2487E-36  0.2000E+02
  -9.524  0.1579E-36  0.2000E+02
  -9.514  0.1001E-36  0.2000E+02
  -9.504  0.6340E-37  0.2000E+02
  -9.494  0.4010E-37  0.2000E+02
  -9.484  0.2533E-37  0.2000E+02
  -9.474  0.1599E-37  0.2000E+02
  -9.464  0.1008E-37  0.2000E+02
  -9.454  0.6342E-38  0.2000E+02
  -9.444  0.3988E-38  0.2000E+02
  -9.434  0.2504E-38  0.2000E+02
  -9.424  0.1571E-38  0.2000E+02
  -9.414  0.9841E-39  0.2000E+02
  -9.404  0.6158E-39  0.2000E+02
  -9.394  0.3849E-39  0.2000E+02
  -9.384  0.2402E-39  0.2000E+02
  -9.374  0.1498E-39  0.2000E+02
  -9.364  0.9329E-40  0.2000E+02
  -9.354  0.5802E-40  0.2000E+02
  -9.344  0.3605E-40  0.2000E+02
  -9.334  0.2237E-40  0.2000E+02
  -9.324  0.1386E-40  0.2000E+02
  -9.314  0.8582E-41  0.2000E+02
  -9.304  0.5306E-41  0.2000E+02
  -9.294  0.3277E-41  0.2000E+02
  -9.284  0.2021E-41  0.2000E+02
  -9.274  0.1245E-41  0.2000E+02
  -9.264  0.7663E-42  0.2000E+02
  -9.254  0.4710E-42  0.2000E+02
  -9.244  0.2891E-42  0.2000E+02
  -9.234  0.1773E-42  0.2000E+02
  -9.224  0.1086E-42  0.2000E+02
  -9.214  0.6640E-43  0.2000E+02
  -9.204  0.4057E-43  0.2000E+02
  -9.194  0.2475E-43  0.2000E+02
  -9.184  0.1509E-43  0.2000E+02
  -9.174  0.9184E-44  0.2000E+02
  -9.164  0.5584E-44  0.2000E+02
  -9.154  0.3391E-44  0.2000E+02
  -9.144  0.2057E-44  0.2000E+02
  -9.134  0.1246E-44  0.2000E+02
  -9.124  0.7541E-45  0.2000E+02
  -9.114  0.4558E-45  0.2000E+02
  -9.104  0.2751E-45  0.2000E+02
  -9.094  0.1659E-45  0.2000E+02
  -9.084  0.9990E-46  0.2000E+02
  -9.074  0.6009E-46  0.2000E+02
  -9.064  0.3610E-46  0.2000E+02
  -9.054  0.2166E-46  0.2000E+02
  -9.044  0.1298E-46  0.2000E+02
  -9.034  0.7772E-47  0.2000E+02
  -9.024  0.4647E-47  0.2000E+02
  -9.014  0.2775E-47  0.2000E+02
  -9.004  0.1655E-47  0.2000E+02
  -8.994  0.9862E-48  0.2000E+02
  -8.984  0.5869E-48  0.2000E+02
  -8.974  0.3488E-48  0.2000E+02
  -8.964  0.2071E-48  0.2000E+02
  -8.954  0.1228E-48  0.2000E+02
  -8.944  0.7270E-49  0.2000E+02
  -8.934  0.4300E-49  0.2000E+02
  -8.924  0.2541E-49  0.2000E+02
  -8.914  0.1499E-49  0.2000E+02
  -8.904  0.8836E-50  0.2000E+02
  -8.894  0.5202E-50  0.2000E+02
  -8.884  0.3058E-50  0.2000E+02
  -8.874  0.1796E-50  0.2000E+02
  -8.864  0.1054E-50  0.2000E+02
  -8.854  0.6172E-51  0.2000E+02
  -8.844  0.3612E-51  0.2000E+02
  -8.834  0.2111E-51  0.2000E+02
  -8.824  0.1232E-51  0.2000E+02
  -8.814  0.7185E-52  0.2000E+02
  -8.804  0.4184E-52  0.2000E+02
  -8.794  0.2434E-52  0.2000E+02
  -8.784  0.1414E-52  0.2000E+02
  -8.774  0.8205E-53  0.2000E+02
  -8.764  0.4755E-53  0.2000E+02
  -8.754  0.2753E-53  0.2000E+02
  -8.744  0.1592E-53  0.2000E+02
  -8.734  0.9192E-54  0.2000E+02
  -8.724  0.5302E-54  0.2000E+02
  -8.714  0.3054E-54  0.2000E+02
  -8.704  0.1758E-54  0.2000E+02
  -8.694  0.1010E-54  0.2000E+02
  -8.684  0.5799E-55  0.2000E+02
  -8.674  0.3325E-55  0.2000E+02
  -8.664  0.1904E-55  0.2000E+02
  -8.654  0.1089E-55  0.2000E+02
  -8.644  0.6222E-56  0.2000E+02
  -8.634  0.3551E-56  0.2000E+02
  -8.624  0.2024E-56  0.2000E+02
  -8.614  0.1152E-56  0.2000E+02
  -8.604  0.6550E-57  0.2000E+02
  -8.594  0.3720E-57  0.2000E+02
  -8.584  0.2110E-57  0.2000E+02
  -8.574  0.1195E-57  0.2000E+02
  -8.564  0.6764E-58  0.2000E+02
  -8.554  0.3823E-58  0.2000E+02
  -8.544  0.2158E-58  0.2000E+02
  -8.534  0.1217E-58  0.2000E+02
  -8.524  0.6852E-59  0.2000E+02
  -8.514  0.3854E-59  0.2000E+02
  -8.504  0.2165E-59  0.2000E+02
  -8.494  0.1215E-59  0.2000E+02
  -8.484  0.6810E-60  0.2000E+02
  -8.474  0.3812E-60  0.2000E+02
  -8.464  0.2131E-60  0.2000E+02
  -8.454  0.1190E-60  0.2000E+02
  -8.444  0.6639E-61  0.2000E+02
  -8.434  0.3699E-61  0.2000E+02
  -8.424  0.2058E-61  0.2000E+02
  -8.414  0.1144E-61  0.2000E+02
  -8.404  0.6350E-62  0.2000E+02
  -8.394  0.3521E-62  0.2000E+02
  -8.384  0.1950E-62  0.2000E+02
  -8.374  0.1078E-62  0.2000E+02
  -8.364  0.5958E-63  0.2000E+02
  -8.354  0.3288E-63  0.2000E+02
  -8.344  0.1812E-63  0.2000E+02
  -8.334  0.9975E-64  0.2000E+02
  -8.324  0.5484E-64  0.2000E+02
  -8.314  0.3012E-64  0.2000E+02
  -8.304  0.1652E-64  0.2000E+02
  -8.294  0.9050E-65  0.2000E+02
  -8.284  0.4952E-65  0.2000E+02
  -8.274  0.2707E-65  0.2000E+02
  -8.264  0.1478E-65  0.2000E+02
  -8.254  0.8056E-66  0.2000E+02
  -8.244  0.4387E-66  0.2000E+02
  -8.234  0.2386E-66  0.2000E+02
  -8.224  0.1296E-66  0.2000E+02
  -8.214  0.7034E-67  0.2000E+02
  -8.204  0.3812E-67  0.2000E+02
  -8.194  0.2064E-67  0.2000E+02
  -8.184  0.1116E-67  0.2000E+02
  -8.174  0.6026E-68  0.2000E+02
  -8.164  0.3250E-68  0.2000E+02
  -8.154  0.1751E-68  0.2000E+02
  -8.144  0.9422E-69  0.2000E+02
  -8.134  0.5064E-69  0.2000E+02
  -8.124  0.2718E-69  0.2000E+02
  -8.114  0.1457E-69  0.2000E+02
  -8.104  0.7805E-70  0.2000E+02
  -8.094  0.4175E-70  0.2000E+02
  -8.084  0.2230E-70  0.2000E+02
  -8.074  0.1190E-70  0.2000E+02
  -8.064  0.6343E-71  0.2000E+02
  -8.054  0.3376E-71  0.2000E+02
  -8.044  0.1795E-71  0.2000E+02
  -8.034  0.9534E-72  0.2000E+02
  -8.024  0.5058E-72  0.2000E+02
  -8.014  0.2683E-72  0.2000E+02
  -8.004  0.1425E-72  0.2000E+02
  -7.994  0.7633E-73  0.2000E+02
  -7.984  0.4222E-73  0.2000E+02
  -7.974  0.2587E-73  0.2000E+02
  -7.964  0.2041E-73  0.2000E+02
  -7.954  0.2345E-73  0.2000E+02
  -7.944  0.3614E-73  0.2000E+02
  -7.934  0.6352E-73  0.2000E+02
  -7.924  0.1166E-72  0.2000E+02
  -7.914  0.2164E-72  0.2000E+02
  -7.904  0.4028E-72  0.2000E+02
  -7.894  0.7496E-72  0.2000E+02
  -7.884  0.1394E-71  0.2000E+02
  -7.874  0.2589E-71  0.2000E+02
  -7.864  0.4802E-71  0.2000E+02
  -7.854  0.8899E-71  0.2000E+02
  -7.844  0.1647E-70  0.2000E+02
  -7.834  0.3044E-70  0.2000E+02
  -7.824  0.5621E-70  0.2000E+02
  -7.814  0.1037E-69  0.2000E+02
  -7.804  0.1909E-69  0.2000E+02
  -7.794  0.3513E-69  0.2000E+02
  -7.784  0.6455E-69  0.2000E+02
  -7.774  0.1185E-68  0.2000E+02
  -7.764  0.2172E-68  0.2000E+02
  -7.754  0.3977E-68  0.2000E+02
  -7.744  0.7273E-68  0.2000E+02
  -7.734  0.1329E-67  0.2000E+02
  -7.724  0.2424E-67  0.2000E+02
  -7.714  0.4417E-67  0.2000E+02
  -7.704  0.8040E-67  0.2000E+02
  -7.694  0.1462E-66  0.2000E+02
  -7.684  0.2654E-66  0.2000E+02
  -7.674  0.4814E-66  0.2000E+02
  -7.664  0.8720E-66  0.2000E+02
  -7.654  0.1578E-65  0.2000E+02
  -7.644  0.2851E-65  0.2000E+02
  -7.634  0.5147E-65  0.2000E+02
  -7.624  0.9280E-65  0.2000E+02
  -7.614  0.1671E-64  0.2000E+02
  -7.604  0.3006E-64  0.2000E+02
  -7.594  0.5400E-64  0.2000E+02
  -7.584  0.9689E-64  0.2000E+02
  -7.574  0.1736E-63  0.2000E+02
  -7.564  0.3108E-63  0.2000E+02
  -7.554  0.5558E-63  0.2000E+02
  -7.544  0.9925E-63  0.2000E+02
  -7.534  0.1770E-62  0.2000E+02
  -7.524  0.3154E-62  0.2000E+02
  -7.514  0.5612E-62  0.2000E+02
  -7.504  0.9975E-62  0.2000E+02
  -7.494  0.1771E-61  0.2000E+02
  -7.484  0.3140E-61  0.2000E+02
  -7.474  0.5561E-61  0.2000E+02
  -7.464  0.9837E-61  0.2000E+02
  -7.454  0.1738E-60  0.2000E+02
  -7.444  0.3067E-60  0.2000E+02
  -7.434  0.5406E-60  0.2000E+02
  -7.424  0.9517E-60  0.2000E+02
  -7.414  0.1674E-59  0.2000E+02
  -7.404  0.2939E-59  0.2000E+02
  -7.394  0.5156E-59  0.2000E+02
  -7.384  0.9034E-59  0.2000E+02
  -7.374  0.1581E-58  0.2000E+02
  -7.364  0.2764E-58  0.2000E+02
  -7.354  0.4825E-58  0.2000E+02
  -7.344  0.8414E-58  0.2000E+02
  -7.334  0.1466E-57  0.2000E+02
  -7.324  0.2550E-57  0.2000E+02
  -7.314  0.4430E-57  0.2000E+02
  -7.304  0.7689E-57  0.2000E+02
  -7.294  0.1333E-56  0.2000E+02
  -7.284  0.2308E-56  0.2000E+02
  -7.274  0.3991E-56  0.2000E+02
  -7.264  0.6894E-56  0.2000E+02
  -7.254  0.1189E-55  0.2000E+02
  -7.244  0.2050E-55  0.2000E+02
  -7.234  0.3528E-55  0.2000E+02
  -7.224  0.6065E-55  0.2000E+02
  -7.214  0.1041E-54  0.2000E+02
  -7.204  0.1786E-54  0.2000E+02
  -7.194  0.3059E-54  0.2000E+02
  -7.184  0.5235E-54  0.2000E+02
  -7.174  0.8946E-54  0.2000E+02
  -7.164  0.1527E-53  0.2000E+02
  -7.154  0.2603E-53  0.2000E+02
  -7.144  0.4433E-53  0.2000E+02
  -7.134  0.7540E-53  0.2000E+02
  -7.124  0.1281E-52  0.2000E+02
  -7.114  0.2173E-52  0.2000E+02
  -7.104  0.3683E-52  0.2000E+02
  -7.094  0.6235E-52  0.2000E+02
  -7.084  0.1054E-51  0.2000E+02
  -7.074  0.1780E-51  0.2000E+02
  -7.064  0.3003E-51  0.2000E+02
  -7.054  0.5059E-51  0.2000E+02
  -7.044  0.8513E-51  0.2000E+02
  -7.034  0.1431E-50  0.2000E+02
  -7.024  0.2402E-50  0.2000E+02
  -7.014  0.4028E-50  0.2000E+02
  -7.004  0.6745E-50  0.2000E+02
  -6.994  0.1128E-49  0.2000E+02
  -6.984  0.1885E-49  0.2000E+02
  -6.974  0.3146E-49  0.2000E+02
  -6.964  0.5244E-49  0.2000E+02
  -6.954  0.8730E-49  0.2000E+02
  -6.944  0.1452E-48  0.2000E+02
  -6.934  0.2411E-48  0.2000E+02
  -6.924  0.4000E-48  0.2000E+02
  -6.914  0.6628E-48  0.2000E+02
  -6.904  0.1097E-47  0.2000E+02
  -6.894  0.1813E-47  0.2000E+02
  -6.884  0.2994E-47  0.2000E+02
  -6.874  0.4937E-47  0.2000E+02
  -6.864  0.8131E-47  0.2000E+02
  -6.854  0.1338E-46  0.2000E+02
  -6.844  0.2198E-46  0.2000E+02
  -6.834  0.3608E-46  0.2000E+02
  -6.824  0.5914E-46  0.2000E+02
  -6.814  0.9684E-46  0.2000E+02
  -6.804  0.1584E-45  0.2000E+02
  -6.794  0.2587E-45  0.2000E+02
  -6.784  0.4221E-45  0.2000E+02
  -6.774  0.6879E-45  0.2000E+02
  -6.764  0.1120E-44  0.2000E+02
  -6.754  0.1820E-44  0.2000E+02
  -6.744  0.2956E-44  0.2000E+02
  -6.734  0.4794E-44  0.2000E+02
  -6.724  0.7766E-44  0.2000E+02
  -6.714  0.1257E-43  0.2000E+02
  -6.704  0.2031E-43  0.2000E+02
  -6.694  0.3278E-43  0.2000E+02
  -6.684  0.5285E-43  0.2000E+02
  -6.674  0.8511E-43  0.2000E+02
  -6.664  0.1369E-42  0.2000E+02
  -6.654  0.2199E-42  0.2000E+02
  -6.644  0.3529E-42  0.2000E+02
  -6.634  0.5656E-42  0.2000E+02
  -6.624  0.9055E-42  0.2000E+02
  -6.614  0.1448E-41  0.2000E+02
  -6.604  0.2312E-41  0.2000E+02
  -6.594  0.3688E-41  0.2000E+02
  -6.584  0.5877E-41  0.2000E+02
  -6.574  0.9352E-41  0.2000E+02
  -6.564  0.1486E-40  0.2000E+02
  -6.554  0.2360E-40  0.2000E+02
  -6.544  0.3742E-40  0.2000E+02
  -6.534  0.5927E-40  0.2000E+02
  -6.524  0.9376E-40  0.2000E+02
  -6.514  0.1482E-39  0.2000E+02
  -6.504  0.2338E-39  0.2000E+02
  -6.494  0.3686E-39  0.2000E+02
  -6.484  0.5803E-39  0.2000E+02
  -6.474  0.9126E-39  0.2000E+02
  -6.464  0.1433E-38  0.2000E+02
  -6.454  0.2249E-38  0.2000E+02
  -6.444  0.3524E-38  0.2000E+02
  -6.434  0.5516E-38  0.2000E+02
  -6.424  0.8623E-38  0.2000E+02
  -6.414  0.1346E-37  0.2000E+02
  -6.404  0.2100E-37  0.2000E+02
  -6.394  0.3271E-37  0.2000E+02
  -6.384  0.5089E-37  0.2000E+02
  -6.374  0.7909E-37  0.2000E+02
  -6.364  0.1228E-36  0.2000E+02
  -6.354  0.1903E-36  0.2000E+02
  -6.344  0.2947E-36  0.2000E+02
  -6.334  0.4559E-36  0.2000E+02
  -6.324  0.7042E-36  0.2000E+02
  -6.314  0.1087E-35  0.2000E+02
  -6.304  0.1675E-35  0.2000E+02
  -6.294  0.2578E-35  0.2000E+02
  -6.284  0.3964E-35  0.2000E+02
  -6.274  0.6088E-35  0.2000E+02
  -6.264  0.9338E-35  0.2000E+02
  -6.254  0.1431E-34  0.2000E+02
  -6.244  0.2189E-34  0.2000E+02
  -6.234  0.3346E-34  0.2000E+02
  -6.224  0.5108E-34  0.2000E+02
  -6.214  0.7789E-34  0.2000E+02
  -6.204  0.1186E-33  0.2000E+02
  -6.194  0.1805E-33  0.2000E+02
  -6.184  0.2742E-33  0.2000E+02
  -6.174  0.4162E-33  0.2000E+02
  -6.164  0.6308E-33  0.2000E+02
  -6.154  0.9551E-33  0.2000E+02
  -6.144  0.1444E-32  0.2000E+02
  -6.134  0.2182E-32  0.2000E+02
  -6.124  0.3291E-32  0.2000E+02
  -6.114  0.4959E-32  0.2000E+02
  -6.104  0.7464E-32  0.2000E+02
  -6.094  0.1122E-31  0.2000E+02
  -6.084  0.1685E-31  0.2000E+02
  -6.074  0.2527E-31  0.2000E+02
  -6.064  0.3785E-31  0.2000E+02
  -6.054  0.5663E-31  0.2000E+02
  -6.044  0.8464E-31  0.2000E+02
  -6.034  0.1263E-30  0.2000E+02
  -6.024  0.1883E-30  0.2000E+02
  -6.014  0.2805E-30  0.2000E+02
  -6.004  0.4172E-30  0.2000E+02
  -5.994  0.6197E-30  0.2000E+02
  -5.984  0.9196E-30  0.2000E+02
  -5.974  0.1363E-29  0.2000E+02
  -5.964  0.2018E-29  0.2000E+02
  -5.954  0.2983E-29  0.2000E+02
  -5.944  0.4405E-29  0.2000E+02
  -5.934  0.6498E-29  0.2000E+02
  -5.924  0.9574E-29  0.2000E+02
  -5.914  0.1409E-28  0.2000E+02
  -5.904  0.2071E-28  0.2000E+02
  -5.894  0.3040E-28  0.2000E+02
  -5.884  0.4458E-28  0.2000E+02
  -5.874  0.6530E-28  0.2000E+02
  -5.864  0.9552E-28  0.2000E+02
  -5.854  0.1396E-27  0.2000E+02
  -5.844  0.2037E-27  0.2000E+02
  -5.834  0.2969E-27  0.2000E+02
  -5.824  0.4323E-27  0.2000E+02
  -5.814  0.6288E-27  0.2000E+02
  -5.804  0.9133E-27  0.2000E+02
  -5.794  0.1325E-26  0.2000E+02
  -5.784  0.1920E-26  0.2000E+02
  -5.774  0.2779E-26  0.2000E+02
  -5.764  0.4018E-26  0.2000E+02
  -5.754  0.5802E-26  0.2000E+02
  -5.744  0.8368E-26  0.2000E+02
  -5.734  0.1205E-25  0.2000E+02
  -5.724  0.1734E-25  0.2000E+02
  -5.714  0.2493E-25  0.2000E+02
  -5.704  0.3578E-25  0.2000E+02
  -5.694  0.5130E-25  0.2000E+02
  -5.684  0.7347E-25  0.2000E+02
  -5.674  0.1051E-24  0.2000E+02
  -5.664  0.1501E-24  0.2000E+02
  -5.654  0.2142E-24  0.2000E+02
  -5.644  0.3054E-24  0.2000E+02
  -5.634  0.4347E-24  0.2000E+02
  -5.624  0.6182E-24  0.2000E+02
  -5.614  0.8780E-24  0.2000E+02
  -5.604  0.1246E-23  0.2000E+02
  -5.594  0.1765E-23  0.2000E+02
  -5.584  0.2498E-23  0.2000E+02
  -5.574  0.3531E-23  0.2000E+02
  -5.564  0.4985E-23  0.2000E+02
  -5.554  0.7030E-23  0.2000E+02
  -5.544  0.9902E-23  0.2000E+02
  -5.534  0.1393E-22  0.2000E+02
  -5.524  0.1958E-22  0.2000E+02
  -5.514  0.2748E-22  0.2000E+02
  -5.504  0.3852E-22  0.2000E+02
  -5.494  0.5394E-22  0.2000E+02
  -5.484  0.7544E-22  0.2000E+02
  -5.474  0.1054E-21  0.2000E+02
  -5.464  0.1471E-21  0.2000E+02
  -5.454  0.2050E-21  0.2000E+02
  -5.444  0.2853E-21  0.2000E+02
  -5.434  0.3967E-21  0.2000E+02
  -5.424  0.5509E-21  0.2000E+02
  -5.414  0.7642E-21  0.2000E+02
  -5.404  0.1059E-20  0.2000E+02
  -5.394  0.1465E-20  0.2000E+02
  -5.384  0.2025E-20  0.2000E+02
  -5.374  0.2796E-20  0.2000E+02
  -5.364  0.3855E-20  0.2000E+02
  -5.354  0.5310E-20  0.2000E+02
  -5.344  0.7305E-20  0.2000E+02
  -5.334  0.1004E-19  0.2000E+02
  -5.324  0.1378E-19  0.2000E+02
  -5.314  0.1889E-19  0.2000E+02
  -5.304  0.2586E-19  0.2000E+02
  -5.294  0.3537E-19  0.2000E+02
  -5.284  0.4831E-19  0.2000E+02
  -5.274  0.6592E-19  0.2000E+02
  -5.264  0.8983E-19  0.2000E+02
  -5.254  0.1223E-18  0.2000E+02
  -5.244  0.1662E-18  0.2000E+02
  -5.234  0.2258E-18  0.2000E+02
  -5.224  0.3062E-18  0.2000E+02
  -5.214  0.4149E-18  0.2000E+02
  -5.204  0.5614E-18  0.2000E+02
  -5.194  0.7588E-18  0.2000E+02
  -5.184  0.1024E-17  0.2000E+02
  -5.174  0.1381E-17  0.2000E+02
  -5.164  0.1860E-17  0.2000E+02
  -5.154  0.2503E-17  0.2000E+02
  -5.144  0.3363E-17  0.2000E+02
  -5.134  0.4513E-17  0.2000E+02
  -5.124  0.6050E-17  0.2000E+02
  -5.114  0.8101E-17  0.2000E+02
  -5.104  0.1083E-16  0.2000E+02
  -5.094  0.1447E-16  0.2000E+02
  -5.084  0.1931E-16  0.2000E+02
  -5.074  0.2573E-16  0.2000E+02
  -5.064  0.3425E-16  0.2000E+02
  -5.054  0.4554E-16  0.2000E+02
  -5.044  0.6048E-16  0.2000E+02
  -5.034  0.8022E-16  0.2000E+02
  -5.024  0.1063E-15  0.2000E+02
  -5.014  0.1406E-15  0.2000E+02
  -5.004  0.1859E-15  0.2000E+02
  -4.994  0.2454E-15  0.2000E+02
  -4.984  0.3236E-15  0.2000E+02
  -4.974  0.4263E-15  0.2000E+02
  -4.964  0.5608E-15  0.2000E+02
  -4.954  0.7369E-15  0.2000E+02
  -4.944  0.9671E-15  0.2000E+02
  -4.934  0.1268E-14  0.2000E+02
  -4.924  0.1660E-14  0.2000E+02
  -4.914  0.2171E-14  0.2000E+02
  -4.904  0.2836E-14  0.2000E+02
  -4.894  0.3701E-14  0.2000E+02
  -4.884  0.4824E-14  0.2000E+02
  -4.874  0.6279E-14  0.2000E+02
  -4.864  0.8164E-14  0.2000E+02
  -4.854  0.1060E-13  0.2000E+02
  -4.844  0.1375E-13  0.2000E+02
  -4.834  0.1782E-13  0.2000E+02
  -4.824  0.2306E-13  0.2000E+02
  -4.814  0.2981E-13  0.2000E+02
  -4.804  0.3849E-13  0.2000E+02
  -4.794  0.4964E-13  0.2000E+02
  -4.784  0.6395E-13  0.2000E+02
  -4.774  0.8228E-13  0.2000E+02
  -4.764  0.1057E-12  0.2000E+02
  -4.754  0.1357E-12  0.2000E+02
  -4.744  0.1740E-12  0.2000E+02
  -4.734  0.2228E-12  0.2000E+02
  -4.724  0.2851E-12  0.2000E+02
  -4.714  0.3642E-12  0.2000E+02
  -4.704  0.4648E-12  0.2000E+02
  -4.694  0.5924E-12  0.2000E+02
  -4.684  0.7543E-12  0.2000E+02
  -4.674  0.9592E-12  0.2000E+02
  -4.664  0.1218E-11  0.2000E+02
  -4.654  0.1546E-11  0.2000E+02
  -4.644  0.1959E-11  0.2000E+02
  -4.634  0.2480E-11  0.2000E+02
  -4.624  0.3135E-11  0.2000E+02
  -4.614  0.3959E-11  0.2000E+02
  -4.604  0.4994E-11  0.2000E+02
  -4.594  0.6291E-11  0.2000E+02
  -4.584  0.7917E-11  0.2000E+02
  -4.574  0.9952E-11  0.2000E+02
  -4.564  0.1249E-10  0.2000E+02
  -4.554  0.1567E-10  0.2000E+02
  -4.544  0.1963E-10  0.2000E+02
  -4.534  0.2456E-10  0.2000E+02
  -4.524  0.3069E-10  0.2000E+02
  -4.514  0.3831E-10  0.2000E+02
  -4.504  0.4776E-10  0.2000E+02
  -4.494  0.5948E-10  0.2000E+02
  -4.484  0.7399E-10  0.2000E+02
  -4.474  0.9193E-10  0.2000E+02
  -4.464  0.1141E-09  0.2000E+02
  -4.454  0.1414E-09  0.2000E+02
  -4.444  0.1751E-09  0.2000E+02
  -4.434  0.2165E-09  0.2000E+02
  -4.424  0.2675E-09  0.2000E+02
  -4.414  0.3301E-09  0.2000E+02
  -4.404  0.4068E-09  0.2000E+02
  -4.394  0.5008E-09  0.2000E+02
  -4.384  0.6157E-09  0.2000E+02
  -4.374  0.7562E-09  0.2000E+02
  -4.364  0.9277E-09  0.2000E+02
  -4.354  0.1137E-08  0.2000E+02
  -4.344  0.1391E-08  0.2000E+02
  -4.334  0.1701E-08  0.2000E+02
  -4.324  0.2077E-08  0.2000E+02
  -4.314  0.2533E-08  0.2000E+02
  -4.304  0.3087E-08  0.2000E+02
  -4.294  0.3756E-08  0.2000E+02
  -4.284  0.4566E-08  0.2000E+02
  -4.274  0.5543E-08  0.2000E+02
  -4.264  0.6722E-08  0.2000E+02
  -4.254  0.8143E-08  0.2000E+02
  -4.244  0.9852E-08  0.2000E+02
  -4.234  0.1191E-07  0.2000E+02
  -4.224  0.1437E-07  0.2000E+02
  -4.214  0.1733E-07  0.2000E+02
  -4.204  0.2087E-07  0.2000E+02
  -4.194  0.2511E-07  0.2000E+02
  -4.184  0.3018E-07  0.2000E+02
  -4.174  0.3622E-07  0.2000E+02
  -4.164  0.4342E-07  0.2000E+02
  -4.154  0.5200E-07  0.2000E+02
  -4.144  0.6220E-07  0.2000E+02
  -4.134  0.7432E-07  0.2000E+02
  -4.124  0.8870E-07  0.2000E+02
  -4.114  0.1057E-06  0.2000E+02
  -4.104  0.1259E-06  0.2000E+02
  -4.094  0.1497E-06  0.2000E+02
  -4.084  0.1779E-06  0.2000E+02
  -4.074  0.2111E-06  0.2000E+02
  -4.064  0.2502E-06  0.2000E+02
  -4.054  0.2963E-06  0.2000E+02
  -4.044  0.3504E-06  0.2000E+02
  -4.034  0.4139E-06  0.2000E+02
  -4.024  0.4884E-06  0.2000E+02
  -4.014  0.5756E-06  0.2000E+02
  -4.004  0.6777E-06  0.2000E+02
  -3.994  0.7969E-06  0.2000E+02
  -3.984  0.9361E-06  0.2000E+02
  -3.974  0.1098E-05  0.2000E+02
  -3.964  0.1287E-05  0.2000E+02
  -3.954  0.1507E-05  0.2000E+02
  -3.944  0.1762E-05  0.2000E+02
  -3.934  0.2058E-05  0.2000E+02
  -3.924  0.2401E-05  0.2000E+02
  -3.914  0.2798E-05  0.2000E+02
  -3.904  0.3258E-05  0.2000E+02
  -3.894  0.3788E-05  0.2000E+02
  -3.884  0.4400E-05  0.2000E+02
  -3.874  0.5104E-05  0.2000E+02
  -3.864  0.5915E-05  0.2000E+02
  -3.854  0.6848E-05  0.2000E+02
  -3.844  0.7918E-05  0.2000E+02
  -3.834  0.9145E-05  0.2000E+02
  -3.824  0.1055E-04  0.2000E+02
  -3.814  0.1216E-04  0.2000E+02
  -3.804  0.1400E-04  0.2000E+02
  -3.794  0.1610E-04  0.2000E+02
  -3.784  0.1849E-04  0.2000E+02
  -3.774  0.2121E-04  0.2000E+02
  -3.764  0.2431E-04  0.2000E+02
  -3.754  0.2783E-04  0.2000E+02
  -3.744  0.3183E-04  0.2000E+02
  -3.734  0.3635E-04  0.2000E+02
  -3.724  0.4148E-04  0.2000E+02
  -3.714  0.4728E-04  0.2000E+02
  -3.704  0.5383E-04  0.2000E+02
  -3.694  0.6121E-04  0.2000E+02
  -3.684  0.6954E-04  0.2000E+02
  -3.674  0.7891E-04  0.2000E+02
  -3.664  0.8945E-04  0.2000E+02
  -3.654  0.1013E-03  0.2000E+02
  -3.644  0.1146E-03  0.2000E+02
  -3.634  0.1294E-03  0.2000E+02
  -3.624  0.1461E-03  0.2000E+02
  -3.614  0.1647E-03  0.2000E+02
  -3.604  0.1855E-03  0.2000E+02
  -3.594  0.2086E-03  0.2000E+02
  -3.584  0.2344E-03  0.2000E+02
  -3.574  0.2632E-03  0.2000E+02
  -3.564  0.2951E-03  0.2000E+02
  -3.554  0.3305E-03  0.2000E+02
  -3.544  0.3698E-03  0.2000E+02
  -3.534  0.4133E-03  0.2000E+02
  -3.524  0.4615E-03  0.2000E+02
  -3.514  0.5147E-03  0.2000E+02
  -3.504  0.5735E-03  0.2000E+02
  -3.494  0.6382E-03  0.2000E+02
  -3.484  0.7095E-03  0.2000E+02
  -3.474  0.7880E-03  0.2000E+02
  -3.464  0.8742E-03  0.2000E+02
  -3.454  0.9688E-03  0.2000E+02
  -3.444  0.1073E-02  0.2000E+02
  -3.434  0.1186E-02  0.2000E+02
  -3.424  0.1310E-02  0.2000E+02
  -3.414  0.1446E-02  0.2000E+02
  -3.404  0.1594E-02  0.2000E+02
  -3.394  0.1756E-02  0.2000E+02
  -3.384  0.1932E-02  0.2000E+02
  -3.374  0.2123E-02  0.2000E+02
  -3.364  0.2331E-02  0.2000E+02
  -3.354  0.2556E-02  0.2000E+02
  -3.344  0.2801E-02  0.2000E+02
  -3.334  0.3065E-02  0.2000E+02
  -3.324  0.3351E-02  0.2000E+02
  -3.314  0.3661E-02  0.2000E+02
  -3.304  0.3994E-02  0.2000E+02
  -3.294  0.4354E-02  0.2000E+02
  -3.284  0.4741E-02  0.2000E+02
  -3.274  0.5158E-02  0.2000E+02
  -3.264  0.5605E-02  0.2000E+02
  -3.254  0.6086E-02  0.2000E+02
  -3.244  0.6600E-02  0.2000E+02
  -3.234  0.7152E-02  0.2000E+02
  -3.224  0.7741E-02  0.2000E+02
  -3.214  0.8371E-02  0.2000E+02
  -3.204  0.9044E-02  0.2000E+02
  -3.194  0.9760E-02  0.2000E+02
  -3.184  0.1052E-01  0.2000E+02
  -3.174  0.1134E-01  0.2000E+02
  -3.164  0.1220E-01  0.2000E+02
  -3.154  0.1311E-01  0.2000E+02
  -3.144  0.1409E-01  0.2000E+02
  -3.134  0.1511E-01  0.2000E+02
  -3.124  0.1620E-01  0.2000E+02
  -3.114  0.1735E-01  0.2000E+02
  -3.104  0.1857E-01  0.2000E+02
  -3.094  0.1985E-01  0.2000E+02
  -3.084  0.2120E-01  0.2000E+02
  -3.074  0.2262E-01  0.2000E+02
  -3.064  0.2411E-01  0.2000E+02
  -3.054  0.2568E-01  0.2000E+02
  -3.044  0.2732E-01  0.2000E+02
  -3.034  0.2904E-01  0.2000E+02
  -3.024  0.3085E-01  0.2000E+02
  -3.014  0.3273E-01  0.2000E+02
  -3.004  0.3470E-01  0.2001E+02
  -2.994  0.3676E-01  0.2001E+02
  -2.984  0.3891E-01  0.2001E+02
  -2.974  0.4114E-01  0.2001E+02
  -2.964  0.4346E-01  0.2001E+02
  -2.954  0.4588E-01  0.2001E+02
  -2.944  0.4839E-01  0.2001E+02
  -2.934  0.5099E-01  0.2001E+02
  -2.924  0.5369E-01  0.2001E+02
  -2.914  0.5648E-01  0.2001E+02
  -2.904  0.5936E-01  0.2001E+02
  -2.894  0.6235E-01  0.2001E+02
  -2.884  0.6543E-01  0.2001E+02
  -2.874  0.6860E-01  0.2001E+02
  -2.864  0.7187E-01  0.2001E+02
  -2.854  0.7524E-01  0.2001E+02
  -2.844  0.7870E-01  0.2001E+02
  -2.834  0.8226E-01  0.2001E+02
  -2.824  0.8591E-01  0.2002E+02
  -2.814  0.8965E-01  0.2002E+02
  -2.804  0.9348E-01  0.2002E+02
  -2.794  0.9741E-01  0.2002E+02
  -2.784  0.1014E+00  0.2002E+02
  -2.774  0.1055E+00  0.2002E+02
  -2.764  0.1097E+00  0.2002E+02
  -2.754  0.1140E+00  0.2002E+02
  -2.744  0.1183E+00  0.2002E+02
  -2.734  0.1228E+00  0.2003E+02
  -2.724  0.1273E+00  0.2003E+02
  -2.714  0.1319E+00  0.2003E+02
  -2.704  0.1365E+00  0.2003E+02
  -2.694  0.1412E+00  0.2003E+02
  -2.684  0.1460E+00  0.2003E+02
  -2.674  0.1509E+00  0.2003E+02
  -2.664  0.1558E+00  0.2004E+02
  -2.654  0.1607E+00  0.2004E+02
  -2.644  0.1658E+00  0.2004E+02
  -2.634  0.1708E+00  0.2004E+02
  -2.624  0.1760E+00  0.2004E+02
  -2.614  0.1811E+00  0.2004E+02
  -2.604  0.1863E+00  0.2005E+02
  -2.594  0.1916E+00  0.2005E+02
  -2.584  0.1969E+00  0.2005E+02
  -2.574  0.2022E+00  0.2005E+02
  -2.564  0.2075E+00  0.2005E+02
  -2.554  0.2129E+00  0.2006E+02
  -2.544  0.2183E+00  0.2006E+02
  -2.534  0.2237E+00  0.2006E+02
  -2.524  0.2291E+00  0.2006E+02
  -2.514  0.2345E+00  0.2006E+02
  -2.504  0.2400E+00  0.2007E+02
  -2.494  0.2454E+00  0.2007E+02
  -2.484  0.2509E+00  0.2007E+02
  -2.474  0.2563E+00  0.2007E+02
  -2.464  0.2618E+00  0.2008E+02
  -2.454  0.2673E+00  0.2008E+02
  -2.444  0.2727E+00  0.2008E+02
  -2.434  0.2782E+00  0.2009E+02
  -2.424  0.2836E+00  0.2009E+02
  -2.414  0.2890E+00  0.2009E+02
  -2.404  0.2944E+00  0.2009E+02
  -2.394  0.2998E+00  0.2010E+02
  -2.384  0.3052E+00  0.2010E+02
  -2.374  0.3106E+00  0.2010E+02
  -2.364  0.3159E+00  0.2011E+02
  -2.354  0.3212E+00  0.2011E+02
  -2.344  0.3265E+00  0.2011E+02
  -2.334  0.3318E+00  0.2012E+02
  -2.324  0.3371E+00  0.2012E+02
  -2.314  0.3423E+00  0.2012E+02
  -2.304  0.3475E+00  0.2013E+02
  -2.294  0.3527E+00  0.2013E+02
  -2.284  0.3578E+00  0.2013E+02
  -2.274  0.3630E+00  0.2014E+02
  -2.264  0.3681E+00  0.2014E+02
  -2.254  0.3732E+00  0.2014E+02
  -2.244  0.3782E+00  0.2015E+02
  -2.234  0.3832E+00  0.2015E+02
  -2.224  0.3882E+00  0.2016E+02
  -2.214  0.3932E+00  0.2016E+02
  -2.204  0.3982E+00  0.2016E+02
  -2.194  0.4031E+00  0.2017E+02
  -2.184  0.4080E+00  0.2017E+02
  -2.174  0.4129E+00  0.2018E+02
  -2.164  0.4178E+00  0.2018E+02
  -2.154  0.4226E+00  0.2018E+02
  -2.144  0.4275E+00  0.2019E+02
  -2.134  0.4323E+00  0.2019E+02
  -2.124  0.4371E+00  0.2020E+02
  -2.114  0.4418E+00  0.2020E+02
  -2.104  0.4466E+00  0.2021E+02
  -2.094  0.4513E+00  0.2021E+02
  -2.084  0.4561E+00  0.2022E+02
  -2.074  0.4608E+00  0.2022E+02
  -2.064  0.4655E+00  0.2022E+02
  -2.054  0.4702E+00  0.2023E+02
  -2.044  0.4749E+00  0.2023E+02
  -2.034  0.4796E+00  0.2024E+02
  -2.024  0.4842E+00  0.2024E+02
  -2.014  0.4889E+00  0.2025E+02
  -2.004  0.4936E+00  0.2025E+02
  -1.994  0.4982E+00  0.2026E+02
  -1.984  0.5029E+00  0.2026E+02
  -1.974  0.5076E+00  0.2027E+02
  -1.964  0.5122E+00  0.2027E+02
  -1.954  0.5169E+00  0.2028E+02
  -1.944  0.5216E+00  0.2028E+02
  -1.934  0.5263E+00  0.2029E+02
  -1.924  0.5310E+00  0.2030E+02
  -1.914  0.5357E+00  0.2030E+02
  -1.904  0.5404E+00  0.2031E+02
  -1.894  0.5451E+00  0.2031E+02
  -1.884  0.5499E+00  0.2032E+02
  -1.874  0.5546E+00  0.2032E+02
  -1.864  0.5594E+00  0.2033E+02
  -1.854  0.5642E+00  0.2033E+02
  -1.844  0.5691E+00  0.2034E+02
  -1.834  0.5739E+00  0.2034E+02
  -1.824  0.5788E+00  0.2035E+02
  -1.814  0.5837E+00  0.2036E+02
  -1.804  0.5886E+00  0.2036E+02
  -1.794  0.5936E+00  0.2037E+02
  -1.784  0.5986E+00  0.2037E+02
  -1.774  0.6036E+00  0.2038E+02
  -1.764  0.6086E+00  0.2039E+02
  -1.754  0.6137E+00  0.2039E+02
  -1.744  0.6188E+00  0.2040E+02
  -1.734  0.6240E+00  0.2041E+02
  -1.724  0.6292E+00  0.2041E+02
  -1.714  0.6344E+00  0.2042E+02
  -1.704  0.6397E+00  0.2042E+02
  -1.694  0.6450E+00  0.2043E+02
  -1.684  0.6504E+00  0.2044E+02
  -1.674  0.6558E+00  0.2044E+02
  -1.664  0.6613E+00  0.2045E+02
  -1.654  0.6668E+00  0.2046E+02
  -1.644  0.6723E+00  0.2046E+02
  -1.634  0.6779E+00  0.2047E+02
  -1.624  0.6836E+00  0.2048E+02
  -1.614  0.6893E+00  0.2048E+02
  -1.604  0.6950E+00  0.2049E+02
  -1.594  0.7008E+00  0.2050E+02
  -1.584  0.7066E+00  0.2051E+02
  -1.574  0.7125E+00  0.2051E+02
  -1.564  0.7184E+00  0.2052E+02
  -1.554  0.7244E+00  0.2053E+02
  -1.544  0.7304E+00  0.2053E+02
  -1.534  0.7364E+00  0.2054E+02
  -1.524  0.7425E+00  0.2055E+02
  -1.514  0.7486E+00  0.2056E+02
  -1.504  0.7548E+00  0.2056E+02
  -1.494  0.7610E+00  0.2057E+02
  -1.484  0.7672E+00  0.2058E+02
  -1.474  0.7735E+00  0.2059E+02
  -1.464  0.7798E+00  0.2059E+02
  -1.454  0.7861E+00  0.2060E+02
  -1.444  0.7924E+00  0.2061E+02
  -1.434  0.7988E+00  0.2062E+02
  -1.424  0.8051E+00  0.2063E+02
  -1.414  0.8115E+00  0.2063E+02
  -1.404  0.8179E+00  0.2064E+02
  -1.394  0.8243E+00  0.2065E+02
  -1.384  0.8306E+00  0.2066E+02
  -1.374  0.8370E+00  0.2067E+02
  -1.364  0.8433E+00  0.2068E+02
  -1.354  0.8497E+00  0.2068E+02
  -1.344  0.8560E+00  0.2069E+02
  -1.334  0.8622E+00  0.2070E+02
  -1.324  0.8685E+00  0.2071E+02
  -1.314  0.8746E+00  0.2072E+02
  -1.304  0.8808E+00  0.2073E+02
  -1.294  0.8869E+00  0.2074E+02
  -1.284  0.8929E+00  0.2075E+02
  -1.274  0.8988E+00  0.2075E+02
  -1.264  0.9047E+00  0.2076E+02
  -1.254  0.9105E+00  0.2077E+02
  -1.244  0.9162E+00  0.2078E+02
  -1.234  0.9217E+00  0.2079E+02
  -1.224  0.9272E+00  0.2080E+02
  -1.214  0.9326E+00  0.2081E+02
  -1.204  0.9379E+00  0.2082E+02
  -1.194  0.9430E+00  0.2083E+02
  -1.184  0.9480E+00  0.2084E+02
  -1.174  0.9529E+00  0.2085E+02
  -1.164  0.9576E+00  0.2086E+02
  -1.154  0.9622E+00  0.2087E+02
  -1.144  0.9666E+00  0.2088E+02
  -1.134  0.9708E+00  0.2089E+02
  -1.124  0.9749E+00  0.2090E+02
  -1.114  0.9788E+00  0.2091E+02
  -1.104  0.9826E+00  0.2092E+02
  -1.094  0.9861E+00  0.2093E+02
  -1.084  0.9895E+00  0.2094E+02
  -1.074  0.9927E+00  0.2095E+02
  -1.064  0.9956E+00  0.2096E+02
  -1.054  0.9984E+00  0.2097E+02
  -1.044  0.1001E+01  0.2098E+02
  -1.034  0.1003E+01  0.2099E+02
  -1.024  0.1005E+01  0.2100E+02
  -1.014  0.1007E+01  0.2101E+02
  -1.004  0.1009E+01  0.2102E+02
  -0.994  0.1011E+01  0.2103E+02
  -0.984  0.1012E+01  0.2104E+02
  -0.974  0.1013E+01  0.2105E+02
  -0.964  0.1014E+01  0.2106E+02
  -0.954  0.1015E+01  0.2107E+02
  -0.944  0.1015E+01  0.2108E+02
  -0.934  0.1015E+01  0.2109E+02
  -0.924  0.1015E+01  0.2110E+02
  -0.914  0.1015E+01  0.2111E+02
  -0.904  0.1015E+01  0.2112E+02
  -0.894  0.1014E+01  0.2113E+02
  -0.884  0.1013E+01  0.2114E+02
  -0.874  0.1012E+01  0.2115E+02
  -0.864  0.1011E+01  0.2116E+02
  -0.854  0.1009E+01  0.2117E+02
  -0.844  0.1007E+01  0.2118E+02
  -0.834  0.1006E+01  0.2119E+02
  -0.824  0.1004E+01  0.2120E+02
  -0.814  0.1001E+01  0.2121E+02
  -0.804  0.9988E+00  0.2122E+02
  -0.794  0.9962E+00  0.2123E+02
  -0.784  0.9933E+00  0.2124E+02
  -0.774  0.9904E+00  0.2125E+02
  -0.764  0.9872E+00  0.2126E+02
  -0.754  0.9839E+00  0.2127E+02
  -0.744  0.9804E+00  0.2128E+02
  -0.734  0.9768E+00  0.2129E+02
  -0.724  0.9730E+00  0.2130E+02
  -0.714  0.9691E+00  0.2131E+02
  -0.704  0.9650E+00  0.2132E+02
  -0.694  0.9608E+00  0.2133E+02
  -0.684  0.9564E+00  0.2134E+02
  -0.674  0.9519E+00  0.2134E+02
  -0.664  0.9473E+00  0.2135E+02
  -0.654  0.9426E+00  0.2136E+02
  -0.644  0.9378E+00  0.2137E+02
  -0.634  0.9328E+00  0.2138E+02
  -0.624  0.9278E+00  0.2139E+02
  -0.614  0.9226E+00  0.2140E+02
  -0.604  0.9174E+00  0.2141E+02
  -0.594  0.9120E+00  0.2142E+02
  -0.584  0.9066E+00  0.2143E+02
  -0.574  0.9011E+00  0.2144E+02
  -0.564  0.8955E+00  0.2145E+02
  -0.554  0.8898E+00  0.2145E+02
  -0.544  0.8840E+00  0.2146E+02
  -0.534  0.8781E+00  0.2147E+02
  -0.524  0.8722E+00  0.2148E+02
  -0.514  0.8662E+00  0.2149E+02
  -0.504  0.8602E+00  0.2150E+02
  -0.494  0.8541E+00  0.2151E+02
  -0.484  0.8479E+00  0.2152E+02
  -0.474  0.8416E+00  0.2152E+02
  -0.464  0.8353E+00  0.2153E+02
  -0.454  0.8290E+00  0.2154E+02
  -0.444  0.8226E+00  0.2155E+02
  -0.434  0.8161E+00  0.2156E+02
  -0.424  0.8096E+00  0.2157E+02
  -0.414  0.8030E+00  0.2157E+02
  -0.404  0.7964E+00  0.2158E+02
  -0.394  0.7898E+00  0.2159E+02
  -0.384  0.7831E+00  0.2160E+02
  -0.374  0.7763E+00  0.2160E+02
  -0.364  0.7695E+00  0.2161E+02
  -0.354  0.7627E+00  0.2162E+02
  -0.344  0.7558E+00  0.2163E+02
  -0.334  0.7489E+00  0.2163E+02
  -0.324  0.7420E+00  0.2164E+02
  -0.314  0.7350E+00  0.2165E+02
  -0.304  0.7279E+00  0.2166E+02
  -0.294  0.7209E+00  0.2166E+02
  -0.284  0.7138E+00  0.2167E+02
  -0.274  0.7066E+00  0.2168E+02
  -0.264  0.6995E+00  0.2169E+02
  -0.254  0.6923E+00  0.2169E+02
  -0.244  0.6850E+00  0.2170E+02
  -0.234  0.6778E+00  0.2171E+02
  -0.224  0.6705E+00  0.2171E+02
  -0.214  0.6632E+00  0.2172E+02
  -0.204  0.6558E+00  0.2173E+02
  -0.194  0.6485E+00  0.2173E+02
  -0.184  0.6411E+00  0.2174E+02
  -0.174  0.6336E+00  0.2175E+02
  -0.164  0.6262E+00  0.2175E+02
  -0.154  0.6188E+00  0.2176E+02
  -0.144  0.6113E+00  0.2176E+02
  -0.134  0.6038E+00  0.2177E+02
  -0.124  0.5963E+00  0.2178E+02
  -0.114  0.5888E+00  0.2178E+02
  -0.104  0.5813E+00  0.2179E+02
  -0.094  0.5738E+00  0.2179E+02
  -0.084  0.5663E+00  0.2180E+02
  -0.074  0.5588E+00  0.2180E+02
  -0.064  0.5513E+00  0.2181E+02
  -0.054  0.5438E+00  0.2182E+02
  -0.044  0.5363E+00  0.2182E+02
  -0.034  0.5288E+00  0.2183E+02
  -0.024  0.5214E+00  0.2183E+02
  -0.014  0.5140E+00  0.2184E+02
  -0.004  0.5066E+00  0.2184E+02
   0.006  0.4993E+00  0.2185E+02
   0.016  0.4920E+00  0.2185E+02
   0.026  0.4847E+00  0.2186E+02
   0.036  0.4776E+00  0.2186E+02
   0.046  0.4704E+00  0.2187E+02
   0.056  0.4634E+00  0.2187E+02
   0.066  0.4564E+00  0.2187E+02
   0.076  0.4495E+00  0.2188E+02
   0.086  0.4426E+00  0.2188E+02
   0.096  0.4359E+00  0.2189E+02
   0.106  0.4292E+00  0.2189E+02
   0.116  0.4227E+00  0.2190E+02
   0.126  0.4163E+00  0.2190E+02
   0.136  0.4099E+00  0.2190E+02
   0.146  0.4038E+00  0.2191E+02
   0.156  0.3977E+00  0.2191E+02
   0.166  0.3918E+00  0.2192E+02
   0.176  0.3860E+00  0.2192E+02
   0.186  0.3804E+00  0.2192E+02
   0.196  0.3749E+00  0.2193E+02
   0.206  0.3696E+00  0.2193E+02
   0.216  0.3645E+00  0.2194E+02
   0.226  0.3596E+00  0.2194E+02
   0.236  0.3548E+00  0.2194E+02
   0.246  0.3502E+00  0.2195E+02
   0.256  0.3458E+00  0.2195E+02
   0.266  0.3417E+00  0.2195E+02
   0.276  0.3377E+00  0.2196E+02
   0.286  0.3340E+00  0.2196E+02
   0.296  0.3304E+00  0.2196E+02
   0.306  0.3271E+00  0.2197E+02
   0.316  0.3240E+00  0.2197E+02
   0.326  0.3212E+00  0.2197E+02
   0.336  0.3186E+00  0.2198E+02
   0.346  0.3162E+00  0.2198E+02
   0.356  0.3141E+00  0.2198E+02
   0.366  0.3122E+00  0.2199E+02
   0.376  0.3105E+00  0.2199E+02
   0.386  0.3092E+00  0.2199E+02
   0.396  0.3080E+00  0.2199E+02
   0.406  0.3071E+00  0.2200E+02
   0.416  0.3065E+00  0.2200E+02
   0.426  0.3061E+00  0.2200E+02
   0.436  0.3060E+00  0.2201E+02
   0.446  0.3061E+00  0.2201E+02
   0.456  0.3065E+00  0.2201E+02
   0.466  0.3072E+00  0.2202E+02
   0.476  0.3081E+00  0.2202E+02
   0.486  0.3092E+00  0.2202E+02
   0.496  0.3106E+00  0.2203E+02
   0.506  0.3122E+00  0.2203E+02
   0.516  0.3141E+00  0.2203E+02
   0.526  0.3162E+00  0.2203E+02
   0.536  0.3186E+00  0.2204E+02
   0.546  0.3212E+00  0.2204E+02
   0.556  0.3240E+00  0.2204E+02
   0.566  0.3270E+00  0.2205E+02
   0.576  0.3303E+00  0.2205E+02
   0.586  0.3338E+00  0.2205E+02
   0.596  0.3375E+00  0.2206E+02
   0.606  0.3413E+00  0.2206E+02
   0.616  0.3454E+00  0.2206E+02
   0.626  0.3497E+00  0.2207E+02
   0.636  0.3542E+00  0.2207E+02
   0.646  0.3589E+00  0.2208E+02
   0.656  0.3637E+00  0.2208E+02
   0.666  0.3687E+00  0.2208E+02
   0.676  0.3739E+00  0.2209E+02
   0.686  0.3792E+00  0.2209E+02
   0.696  0.3847E+00  0.2209E+02
   0.706  0.3904E+00  0.2210E+02
   0.716  0.3961E+00  0.2210E+02
   0.726  0.4021E+00  0.2211E+02
   0.736  0.4081E+00  0.2211E+02
   0.746  0.4143E+00  0.2211E+02
   0.756  0.4206E+00  0.2212E+02
   0.766  0.4271E+00  0.2212E+02
   0.776  0.4336E+00  0.2213E+02
   0.786  0.4402E+00  0.2213E+02
   0.796  0.4470E+00  0.2214E+02
   0.806  0.4539E+00  0.2214E+02
   0.816  0.4608E+00  0.2214E+02
   0.826  0.4678E+00  0.2215E+02
   0.836  0.4750E+00  0.2215E+02
   0.846  0.4822E+00  0.2216E+02
   0.856  0.4895E+00  0.2216E+02
   0.866  0.4968E+00  0.2217E+02
   0.876  0.5043E+00  0.2217E+02
   0.886  0.5118E+00  0.2218E+02
   0.896  0.5193E+00  0.2218E+02
   0.906  0.5270E+00  0.2219E+02
   0.916  0.5347E+00  0.2219E+02
   0.926  0.5424E+00  0.2220E+02
   0.936  0.5503E+00  0.2221E+02
   0.946  0.5581E+00  0.2221E+02
   0.956  0.5660E+00  0.2222E+02
   0.966  0.5740E+00  0.2222E+02
   0.976  0.5820E+00  0.2223E+02
   0.986  0.5901E+00  0.2223E+02
   0.996  0.5982E+00  0.2224E+02
   1.006  0.6063E+00  0.2225E+02
   1.016  0.6145E+00  0.2225E+02
   1.026  0.6227E+00  0.2226E+02
   1.036  0.6309E+00  0.2227E+02
   1.046  0.6392E+00  0.2227E+02
   1.056  0.6475E+00  0.2228E+02
   1.066  0.6558E+00  0.2228E+02
   1.076  0.6641E+00  0.2229E+02
   1.086  0.6725E+00  0.2230E+02
   1.096  0.6808E+00  0.2230E+02
   1.106  0.6892E+00  0.2231E+02
   1.116  0.6976E+00  0.2232E+02
   1.126  0.7059E+00  0.2233E+02
   1.136  0.7143E+00  0.2233E+02
   1.146  0.7226E+00  0.2234E+02
   1.156  0.7309E+00  0.2235E+02
   1.166  0.7392E+00  0.2235E+02
   1.176  0.7475E+00  0.2236E+02
   1.186  0.7557E+00  0.2237E+02
   1.196  0.7639E+00  0.2238E+02
   1.206  0.7720E+00  0.2239E+02
   1.216  0.7801E+00  0.2239E+02
   1.226  0.7881E+00  0.2240E+02
   1.236  0.7961E+00  0.2241E+02
   1.246  0.8039E+00  0.2242E+02
   1.256  0.8117E+00  0.2243E+02
   1.266  0.8194E+00  0.2243E+02
   1.276  0.8269E+00  0.2244E+02
   1.286  0.8344E+00  0.2245E+02
   1.296  0.8417E+00  0.2246E+02
   1.306  0.8489E+00  0.2247E+02
   1.316  0.8559E+00  0.2248E+02
   1.326  0.8628E+00  0.2248E+02
   1.336  0.8696E+00  0.2249E+02
   1.346  0.8761E+00  0.2250E+02
   1.356  0.8825E+00  0.2251E+02
   1.366  0.8887E+00  0.2252E+02
   1.376  0.8947E+00  0.2253E+02
   1.386  0.9004E+00  0.2254E+02
   1.396  0.9060E+00  0.2255E+02
   1.406  0.9113E+00  0.2256E+02
   1.416  0.9164E+00  0.2256E+02
   1.426  0.9212E+00  0.2257E+02
   1.436  0.9258E+00  0.2258E+02
   1.446  0.9301E+00  0.2259E+02
   1.456  0.9341E+00  0.2260E+02
   1.466  0.9378E+00  0.2261E+02
   1.476  0.9413E+00  0.2262E+02
   1.486  0.9444E+00  0.2263E+02
   1.496  0.9473E+00  0.2264E+02
   1.506  0.9499E+00  0.2265E+02
   1.516  0.9521E+00  0.2266E+02
   1.526  0.9540E+00  0.2267E+02
   1.536  0.9556E+00  0.2268E+02
   1.546  0.9569E+00  0.2269E+02
   1.556  0.9578E+00  0.2270E+02
   1.566  0.9585E+00  0.2271E+02
   1.576  0.9588E+00  0.2272E+02
   1.586  0.9587E+00  0.2273E+02
   1.596  0.9583E+00  0.2273E+02
   1.606  0.9577E+00  0.2274E+02
   1.616  0.9566E+00  0.2275E+02
   1.626  0.9553E+00  0.2276E+02
   1.636  0.9536E+00  0.2277E+02
   1.646  0.9516E+00  0.2278E+02
   1.656  0.9493E+00  0.2279E+02
   1.666  0.9467E+00  0.2280E+02
   1.676  0.9438E+00  0.2281E+02
   1.686  0.9405E+00  0.2282E+02
   1.696  0.9370E+00  0.2283E+02
   1.706  0.9333E+00  0.2284E+02
   1.716  0.9292E+00  0.2285E+02
   1.726  0.9249E+00  0.2286E+02
   1.736  0.9203E+00  0.2287E+02
   1.746  0.9155E+00  0.2288E+02
   1.756  0.9105E+00  0.2289E+02
   1.766  0.9052E+00  0.2289E+02
   1.776  0.8997E+00  0.2290E+02
   1.786  0.8940E+00  0.2291E+02
   1.796  0.8881E+00  0.2292E+02
   1.806  0.8821E+00  0.2293E+02
   1.816  0.8759E+00  0.2294E+02
   1.826  0.8695E+00  0.2295E+02
   1.836  0.8630E+00  0.2296E+02
   1.846  0.8563E+00  0.2296E+02
   1.856  0.8496E+00  0.2297E+02
   1.866  0.8427E+00  0.2298E+02
   1.876  0.8357E+00  0.2299E+02
   1.886  0.8287E+00  0.2300E+02
   1.896  0.8215E+00  0.2301E+02
   1.906  0.8143E+00  0.2301E+02
   1.916  0.8071E+00  0.2302E+02
   1.926  0.7998E+00  0.2303E+02
   1.936  0.7925E+00  0.2304E+02
   1.946  0.7851E+00  0.2305E+02
   1.956  0.7777E+00  0.2305E+02
   1.966  0.7704E+00  0.2306E+02
   1.976  0.7630E+00  0.2307E+02
   1.986  0.7556E+00  0.2308E+02
   1.996  0.7483E+00  0.2308E+02
   2.006  0.7410E+00  0.2309E+02
   2.016  0.7337E+00  0.2310E+02
   2.026  0.7264E+00  0.2311E+02
   2.036  0.7192E+00  0.2311E+02
   2.046  0.7121E+00  0.2312E+02
   2.056  0.7049E+00  0.2313E+02
   2.066  0.6979E+00  0.2313E+02
   2.076  0.6909E+00  0.2314E+02
   2.086  0.6840E+00  0.2315E+02
   2.096  0.6771E+00  0.2316E+02
   2.106  0.6703E+00  0.2316E+02
   2.116  0.6636E+00  0.2317E+02
   2.126  0.6569E+00  0.2318E+02
   2.136  0.6503E+00  0.2318E+02
   2.146  0.6438E+00  0.2319E+02
   2.156  0.6374E+00  0.2319E+02
   2.166  0.6311E+00  0.2320E+02
   2.176  0.6248E+00  0.2321E+02
   2.186  0.6187E+00  0.2321E+02
   2.196  0.6126E+00  0.2322E+02
   2.206  0.6066E+00  0.2323E+02
   2.216  0.6007E+00  0.2323E+02
   2.226  0.5949E+00  0.2324E+02
   2.236  0.5891E+00  0.2324E+02
   2.246  0.5835E+00  0.2325E+02
   2.256  0.5779E+00  0.2325E+02
   2.266  0.5724E+00  0.2326E+02
   2.276  0.5670E+00  0.2327E+02
   2.286  0.5617E+00  0.2327E+02
   2.296  0.5565E+00  0.2328E+02
   2.306  0.5513E+00  0.2328E+02
   2.316  0.5463E+00  0.2329E+02
   2.326  0.5413E+00  0.2329E+02
   2.336  0.5364E+00  0.2330E+02
   2.346  0.5316E+00  0.2330E+02
   2.356  0.5269E+00  0.2331E+02
   2.366  0.5222E+00  0.2332E+02
   2.376  0.5176E+00  0.2332E+02
   2.386  0.5132E+00  0.2333E+02
   2.396  0.5087E+00  0.2333E+02
   2.406  0.5044E+00  0.2334E+02
   2.416  0.5001E+00  0.2334E+02
   2.426  0.4960E+00  0.2335E+02
   2.436  0.4918E+00  0.2335E+02
   2.446  0.4878E+00  0.2336E+02
   2.456  0.4838E+00  0.2336E+02
   2.466  0.4799E+00  0.2336E+02
   2.476  0.4761E+00  0.2337E+02
   2.486  0.4723E+00  0.2337E+02
   2.496  0.4686E+00  0.2338E+02
   2.506  0.4649E+00  0.2338E+02
   2.516  0.4613E+00  0.2339E+02
   2.526  0.4577E+00  0.2339E+02
   2.536  0.4543E+00  0.2340E+02
   2.546  0.4508E+00  0.2340E+02
   2.556  0.4474E+00  0.2341E+02
   2.566  0.4441E+00  0.2341E+02
   2.576  0.4408E+00  0.2342E+02
   2.586  0.4375E+00  0.2342E+02
   2.596  0.4343E+00  0.2342E+02
   2.606  0.4312E+00  0.2343E+02
   2.616  0.4280E+00  0.2343E+02
   2.626  0.4249E+00  0.2344E+02
   2.636  0.4219E+00  0.2344E+02
   2.646  0.4188E+00  0.2345E+02
   2.656  0.4158E+00  0.2345E+02
   2.666  0.4128E+00  0.2345E+02
   2.676  0.4099E+00  0.2346E+02
   2.686  0.4069E+00  0.2346E+02
   2.696  0.4040E+00  0.2347E+02
   2.706  0.4011E+00  0.2347E+02
   2.716  0.3983E+00  0.2347E+02
   2.726  0.3954E+00  0.2348E+02
   2.736  0.3926E+00  0.2348E+02
   2.746  0.3898E+00  0.2349E+02
   2.756  0.3870E+00  0.2349E+02
   2.766  0.3842E+00  0.2349E+02
   2.776  0.3814E+00  0.2350E+02
   2.786  0.3787E+00  0.2350E+02
   2.796  0.3760E+00  0.2350E+02
   2.806  0.3732E+00  0.2351E+02
   2.816  0.3705E+00  0.2351E+02
   2.826  0.3678E+00  0.2352E+02
   2.836  0.3652E+00  0.2352E+02
   2.846  0.3625E+00  0.2352E+02
   2.856  0.3599E+00  0.2353E+02
   2.866  0.3573E+00  0.2353E+02
   2.876  0.3546E+00  0.2353E+02
   2.886  0.3521E+00  0.2354E+02
   2.896  0.3495E+00  0.2354E+02
   2.906  0.3470E+00  0.2354E+02
   2.916  0.3444E+00  0.2355E+02
   2.926  0.3419E+00  0.2355E+02
   2.936  0.3395E+00  0.2355E+02
   2.946  0.3370E+00  0.2356E+02
   2.956  0.3346E+00  0.2356E+02
   2.966  0.3322E+00  0.2356E+02
   2.976  0.3298E+00  0.2357E+02
   2.986  0.3275E+00  0.2357E+02
   2.996  0.3252E+00  0.2357E+02
   3.006  0.3229E+00  0.2358E+02
   3.016  0.3206E+00  0.2358E+02
   3.026  0.3184E+00  0.2358E+02
   3.036  0.3162E+00  0.2359E+02
   3.046  0.3140E+00  0.2359E+02
   3.056  0.3119E+00  0.2359E+02
   3.066  0.3098E+00  0.2360E+02
   3.076  0.3077E+00  0.2360E+02
   3.086  0.3057E+00  0.2360E+02
   3.096  0.3037E+00  0.2361E+02
   3.106  0.3017E+00  0.2361E+02
   3.116  0.2998E+00  0.2361E+02
   3.126  0.2979E+00  0.2361E+02
   3.136  0.2960E+00  0.2362E+02
   3.146  0.2941E+00  0.2362E+02
   3.156  0.2923E+00  0.2362E+02
   3.166  0.2904E+00  0.2363E+02
   3.176  0.2887E+00  0.2363E+02
   3.186  0.2869E+00  0.2363E+02
   3.196  0.2851E+00  0.2363E+02
   3.206  0.2834E+00  0.2364E+02
   3.216  0.2817E+00  0.2364E+02
   3.226  0.2800E+00  0.2364E+02
   3.236  0.2783E+00  0.2365E+02
   3.246  0.2766E+00  0.2365E+02
   3.256  0.2750E+00  0.2365E+02
   3.266  0.2733E+00  0.2365E+02
   3.276  0.2717E+00  0.2366E+02
   3.286  0.2701E+00  0.2366E+02
   3.296  0.2684E+00  0.2366E+02
   3.306  0.2668E+00  0.2367E+02
   3.316  0.2652E+00  0.2367E+02
   3.326  0.2636E+00  0.2367E+02
   3.336  0.2619E+00  0.2367E+02
   3.346  0.2603E+00  0.2368E+02
   3.356  0.2587E+00  0.2368E+02
   3.366  0.2571E+00  0.2368E+02
   3.376  0.2554E+00  0.2368E+02
   3.386  0.2538E+00  0.2369E+02
   3.396  0.2522E+00  0.2369E+02
   3.406  0.2505E+00  0.2369E+02
   3.416  0.2489E+00  0.2369E+02
   3.426  0.2472E+00  0.2370E+02
   3.436  0.2456E+00  0.2370E+02
   3.446  0.2439E+00  0.2370E+02
   3.456  0.2422E+00  0.2370E+02
   3.466  0.2406E+00  0.2371E+02
   3.476  0.2389E+00  0.2371E+02
   3.486  0.2372E+00  0.2371E+02
   3.496  0.2356E+00  0.2371E+02
   3.506  0.2339E+00  0.2372E+02
   3.516  0.2323E+00  0.2372E+02
   3.526  0.2306E+00  0.2372E+02
   3.536  0.2290E+00  0.2372E+02
   3.546  0.2273E+00  0.2372E+02
   3.556  0.2257E+00  0.2373E+02
   3.566  0.2241E+00  0.2373E+02
   3.576  0.2225E+00  0.2373E+02
   3.586  0.2210E+00  0.2373E+02
   3.596  0.2194E+00  0.2374E+02
   3.606  0.2179E+00  0.2374E+02
   3.616  0.2164E+00  0.2374E+02
   3.626  0.2150E+00  0.2374E+02
   3.636  0.2136E+00  0.2374E+02
   3.646  0.2122E+00  0.2375E+02
   3.656  0.2109E+00  0.2375E+02
   3.666  0.2096E+00  0.2375E+02
   3.676  0.2083E+00  0.2375E+02
   3.686  0.2072E+00  0.2375E+02
   3.696  0.2061E+00  0.2376E+02
   3.706  0.2050E+00  0.2376E+02
   3.716  0.2040E+00  0.2376E+02
   3.726  0.2031E+00  0.2376E+02
   3.736  0.2023E+00  0.2376E+02
   3.746  0.2015E+00  0.2377E+02
   3.756  0.2008E+00  0.2377E+02
   3.766  0.2003E+00  0.2377E+02
   3.776  0.1998E+00  0.2377E+02
   3.786  0.1994E+00  0.2377E+02
   3.796  0.1991E+00  0.2378E+02
   3.806  0.1990E+00  0.2378E+02
   3.816  0.1989E+00  0.2378E+02
   3.826  0.1990E+00  0.2378E+02
   3.836  0.1992E+00  0.2378E+02
   3.846  0.1995E+00  0.2379E+02
   3.856  0.2000E+00  0.2379E+02
   3.866  0.2006E+00  0.2379E+02
   3.876  0.2014E+00  0.2379E+02
   3.886  0.2023E+00  0.2379E+02
   3.896  0.2034E+00  0.2380E+02
   3.906  0.2047E+00  0.2380E+02
   3.916  0.2061E+00  0.2380E+02
   3.926  0.2078E+00  0.2380E+02
   3.936  0.2096E+00  0.2381E+02
   3.946  0.2117E+00  0.2381E+02
   3.956  0.2139E+00  0.2381E+02
   3.966  0.2164E+00  0.2381E+02
   3.976  0.2191E+00  0.2381E+02
   3.986  0.2220E+00  0.2382E+02
   3.996  0.2252E+00  0.2382E+02
   4.006  0.2286E+00  0.2382E+02
   4.016  0.2323E+00  0.2382E+02
   4.026  0.2362E+00  0.2383E+02
   4.036  0.2404E+00  0.2383E+02
   4.046  0.2449E+00  0.2383E+02
   4.056  0.2497E+00  0.2383E+02
   4.066  0.2548E+00  0.2383E+02
   4.076  0.2603E+00  0.2384E+02
   4.086  0.2660E+00  0.2384E+02
   4.096  0.2721E+00  0.2384E+02
   4.106  0.2784E+00  0.2385E+02
   4.116  0.2852E+00  0.2385E+02
   4.126  0.2923E+00  0.2385E+02
   4.136  0.2997E+00  0.2385E+02
   4.146  0.3075E+00  0.2386E+02
   4.156  0.3157E+00  0.2386E+02
   4.166  0.3243E+00  0.2386E+02
   4.176  0.3332E+00  0.2387E+02
   4.186  0.3425E+00  0.2387E+02
   4.196  0.3522E+00  0.2387E+02
   4.206  0.3623E+00  0.2388E+02
   4.216  0.3728E+00  0.2388E+02
   4.226  0.3837E+00  0.2389E+02
   4.236  0.3949E+00  0.2389E+02
   4.246  0.4066E+00  0.2389E+02
   4.256  0.4187E+00  0.2390E+02
   4.266  0.4311E+00  0.2390E+02
   4.276  0.4439E+00  0.2391E+02
   4.286  0.4572E+00  0.2391E+02
   4.296  0.4708E+00  0.2392E+02
   4.306  0.4847E+00  0.2392E+02
   4.316  0.4990E+00  0.2393E+02
   4.326  0.5137E+00  0.2393E+02
   4.336  0.5287E+00  0.2394E+02
   4.346  0.5441E+00  0.2394E+02
   4.356  0.5598E+00  0.2395E+02
   4.366  0.5757E+00  0.2395E+02
   4.376  0.5920E+00  0.2396E+02
   4.386  0.6086E+00  0.2396E+02
   4.396  0.6254E+00  0.2397E+02
   4.406  0.6424E+00  0.2398E+02
   4.416  0.6597E+00  0.2398E+02
   4.426  0.6771E+00  0.2399E+02
   4.436  0.6948E+00  0.2400E+02
   4.446  0.7126E+00  0.2400E+02
   4.456  0.7305E+00  0.2401E+02
   4.466  0.7486E+00  0.2402E+02
   4.476  0.7668E+00  0.2403E+02
   4.486  0.7850E+00  0.2404E+02
   4.496  0.8033E+00  0.2404E+02
   4.506  0.8216E+00  0.2405E+02
   4.516  0.8399E+00  0.2406E+02
   4.526  0.8582E+00  0.2407E+02
   4.536  0.8765E+00  0.2408E+02
   4.546  0.8947E+00  0.2409E+02
   4.556  0.9127E+00  0.2410E+02
   4.566  0.9307E+00  0.2410E+02
   4.576  0.9485E+00  0.2411E+02
   4.586  0.9662E+00  0.2412E+02
   4.596  0.9837E+00  0.2413E+02
   4.606  0.1001E+01  0.2414E+02
   4.616  0.1018E+01  0.2415E+02
   4.626  0.1035E+01  0.2416E+02
   4.636  0.1051E+01  0.2417E+02
   4.646  0.1068E+01  0.2419E+02
   4.656  0.1084E+01  0.2420E+02
   4.666  0.1099E+01  0.2421E+02
   4.676  0.1115E+01  0.2422E+02
   4.686  0.1130E+01  0.2423E+02
   4.696  0.1144E+01  0.2424E+02
   4.706  0.1159E+01  0.2425E+02
   4.716  0.1173E+01  0.2426E+02
   4.726  0.1186E+01  0.2428E+02
   4.736  0.1199E+01  0.2429E+02
   4.746  0.1212E+01  0.2430E+02
   4.756  0.1225E+01  0.2431E+02
   4.766  0.1237E+01  0.2432E+02
   4.776  0.1248E+01  0.2434E+02
   4.786  0.1260E+01  0.2435E+02
   4.796  0.1271E+01  0.2436E+02
   4.806  0.1281E+01  0.2438E+02
   4.816  0.1291E+01  0.2439E+02
   4.826  0.1301E+01  0.2440E+02
   4.836  0.1311E+01  0.2441E+02
   4.846  0.1320E+01  0.2443E+02
   4.856  0.1328E+01  0.2444E+02
   4.866  0.1337E+01  0.2445E+02
   4.876  0.1345E+01  0.2447E+02
   4.886  0.1353E+01  0.2448E+02
   4.896  0.1360E+01  0.2449E+02
   4.906  0.1367E+01  0.2451E+02
   4.916  0.1374E+01  0.2452E+02
   4.926  0.1381E+01  0.2454E+02
   4.936  0.1387E+01  0.2455E+02
   4.946  0.1393E+01  0.2456E+02
   4.956  0.1399E+01  0.2458E+02
   4.966  0.1405E+01  0.2459E+02
   4.976  0.1411E+01  0.2461E+02
   4.986  0.1416E+01  0.2462E+02
   4.996  0.1421E+01  0.2463E+02
   5.006  0.1426E+01  0.2465E+02
   5.016  0.1431E+01  0.2466E+02
   5.026  0.1436E+01  0.2468E+02
   5.036  0.1441E+01  0.2469E+02
   5.046  0.1445E+01  0.2471E+02
   5.056  0.1450E+01  0.2472E+02
   5.066  0.1455E+01  0.2474E+02
   5.076  0.1459E+01  0.2475E+02
   5.086  0.1464E+01  0.2476E+02
   5.096  0.1468E+01  0.2478E+02
   5.106  0.1472E+01  0.2479E+02
   5.116  0.1477E+01  0.2481E+02
   5.126  0.1481E+01  0.2482E+02
   5.136  0.1486E+01  0.2484E+02
   5.146  0.1490E+01  0.2485E+02
   5.156  0.1495E+01  0.2487E+02
   5.166  0.1499E+01  0.2488E+02
   5.176  0.1504E+01  0.2490E+02
   5.186  0.1508E+01  0.2491E+02
   5.196  0.1513E+01  0.2493E+02
   5.206  0.1518E+01  0.2494E+02
   5.216  0.1522E+01  0.2496E+02
   5.226  0.1527E+01  0.2497E+02
   5.236  0.1532E+01  0.2499E+02
   5.246  0.1537E+01  0.2500E+02
   5.256  0.1542E+01  0.2502E+02
   5.266  0.1547E+01  0.2504E+02
   5.276  0.1552E+01  0.2505E+02
   5.286  0.1557E+01  0.2507E+02
   5.296  0.1562E+01  0.2508E+02
   5.306  0.1567E+01  0.2510E+02
   5.316  0.1572E+01  0.2511E+02
   5.326  0.1578E+01  0.2513E+02
   5.336  0.1583E+01  0.2515E+02
   5.346  0.1588E+01  0.2516E+02
   5.356  0.1594E+01  0.2518E+02
   5.366  0.1599E+01  0.2519E+02
   5.376  0.1604E+01  0.2521E+02
   5.386  0.1609E+01  0.2523E+02
   5.396  0.1615E+01  0.2524E+02
   5.406  0.1620E+01  0.2526E+02
   5.416  0.1625E+01  0.2527E+02
   5.426  0.1630E+01  0.2529E+02
   5.436  0.1635E+01  0.2531E+02
   5.446  0.1640E+01  0.2532E+02
   5.456  0.1645E+01  0.2534E+02
   5.466  0.1650E+01  0.2536E+02
   5.476  0.1654E+01  0.2537E+02
   5.486  0.1659E+01  0.2539E+02
   5.496  0.1663E+01  0.2541E+02
   5.506  0.1668E+01  0.2542E+02
   5.516  0.1672E+01  0.2544E+02
   5.526  0.1676E+01  0.2546E+02
   5.536  0.1680E+01  0.2547E+02
   5.546  0.1684E+01  0.2549E+02
   5.556  0.1687E+01  0.2551E+02
   5.566  0.1691E+01  0.2552E+02
   5.576  0.1694E+01  0.2554E+02
   5.586  0.1697E+01  0.2556E+02
   5.596  0.1700E+01  0.2557E+02
   5.606  0.1702E+01  0.2559E+02
   5.616  0.1705E+01  0.2561E+02
   5.626  0.1707E+01  0.2563E+02
   5.636  0.1709E+01  0.2564E+02
   5.646  0.1710E+01  0.2566E+02
   5.656  0.1712E+01  0.2568E+02
   5.666  0.1713E+01  0.2569E+02
   5.676  0.1714E+01  0.2571E+02
   5.686  0.1715E+01  0.2573E+02
   5.696  0.1716E+01  0.2575E+02
   5.706  0.1716E+01  0.2576E+02
   5.716  0.1716E+01  0.2578E+02
   5.726  0.1716E+01  0.2580E+02
   5.736  0.1716E+01  0.2581E+02
   5.746  0.1715E+01  0.2583E+02
   5.756  0.1715E+01  0.2585E+02
   5.766  0.1714E+01  0.2587E+02
   5.776  0.1713E+01  0.2588E+02
   5.786  0.1711E+01  0.2590E+02
   5.796  0.1710E+01  0.2592E+02
   5.806  0.1708E+01  0.2593E+02
   5.816  0.1706E+01  0.2595E+02
   5.826  0.1704E+01  0.2597E+02
   5.836  0.1701E+01  0.2598E+02
   5.846  0.1699E+01  0.2600E+02
   5.856  0.1696E+01  0.2602E+02
   5.866  0.1693E+01  0.2604E+02
   5.876  0.1690E+01  0.2605E+02
   5.886  0.1687E+01  0.2607E+02
   5.896  0.1684E+01  0.2609E+02
   5.906  0.1680E+01  0.2610E+02
   5.916  0.1677E+01  0.2612E+02
   5.926  0.1673E+01  0.2614E+02
   5.936  0.1670E+01  0.2615E+02
   5.946  0.1666E+01  0.2617E+02
   5.956  0.1662E+01  0.2619E+02
   5.966  0.1658E+01  0.2620E+02
   5.976  0.1654E+01  0.2622E+02
   5.986  0.1650E+01  0.2624E+02
   5.996  0.1646E+01  0.2625E+02
   6.006  0.1642E+01  0.2627E+02
   6.016  0.1638E+01  0.2629E+02
   6.026  0.1633E+01  0.2630E+02
   6.036  0.1629E+01  0.2632E+02
   6.046  0.1625E+01  0.2633E+02
   6.056  0.1621E+01  0.2635E+02
   6.066  0.1616E+01  0.2637E+02
   6.076  0.1612E+01  0.2638E+02
   6.086  0.1608E+01  0.2640E+02
   6.096  0.1603E+01  0.2641E+02
   6.106  0.1599E+01  0.2643E+02
   6.116  0.1595E+01  0.2645E+02
   6.126  0.1590E+01  0.2646E+02
   6.136  0.1586E+01  0.2648E+02
   6.146  0.1582E+01  0.2649E+02
   6.156  0.1578E+01  0.2651E+02
   6.166  0.1573E+01  0.2653E+02
   6.176  0.1569E+01  0.2654E+02
   6.186  0.1565E+01  0.2656E+02
   6.196  0.1560E+01  0.2657E+02
   6.206  0.1556E+01  0.2659E+02
   6.216  0.1552E+01  0.2660E+02
   6.226  0.1547E+01  0.2662E+02
   6.236  0.1543E+01  0.2663E+02
   6.246  0.1538E+01  0.2665E+02
   6.256  0.1534E+01  0.2667E+02
   6.266  0.1529E+01  0.2668E+02
   6.276  0.1525E+01  0.2670E+02
   6.286  0.1520E+01  0.2671E+02
   6.296  0.1515E+01  0.2673E+02
   6.306  0.1510E+01  0.2674E+02
   6.316  0.1506E+01  0.2676E+02
   6.326  0.1501E+01  0.2677E+02
   6.336  0.1495E+01  0.2679E+02
   6.346  0.1490E+01  0.2680E+02
   6.356  0.1485E+01  0.2682E+02
   6.366  0.1480E+01  0.2683E+02
   6.376  0.1474E+01  0.2685E+02
   6.386  0.1469E+01  0.2686E+02
   6.396  0.1463E+01  0.2688E+02
   6.406  0.1457E+01  0.2689E+02
   6.416  0.1451E+01  0.2690E+02
   6.426  0.1445E+01  0.2692E+02
   6.436  0.1439E+01  0.2693E+02
   6.446  0.1432E+01  0.2695E+02
   6.456  0.1425E+01  0.2696E+02
   6.466  0.1419E+01  0.2698E+02
   6.476  0.1412E+01  0.2699E+02
   6.486  0.1405E+01  0.2700E+02
   6.496  0.1397E+01  0.2702E+02
   6.506  0.1390E+01  0.2703E+02
   6.516  0.1382E+01  0.2705E+02
   6.526  0.1375E+01  0.2706E+02
   6.536  0.1367E+01  0.2707E+02
   6.546  0.1358E+01  0.2709E+02
   6.556  0.1350E+01  0.2710E+02
   6.566  0.1342E+01  0.2711E+02
   6.576  0.1333E+01  0.2713E+02
   6.586  0.1324E+01  0.2714E+02
   6.596  0.1315E+01  0.2715E+02
   6.606  0.1306E+01  0.2717E+02
   6.616  0.1297E+01  0.2718E+02
   6.626  0.1287E+01  0.2719E+02
   6.636  0.1278E+01  0.2721E+02
   6.646  0.1268E+01  0.2722E+02
   6.656  0.1258E+01  0.2723E+02
   6.666  0.1248E+01  0.2724E+02
   6.676  0.1237E+01  0.2726E+02
   6.686  0.1227E+01  0.2727E+02
   6.696  0.1216E+01  0.2728E+02
   6.706  0.1206E+01  0.2729E+02
   6.716  0.1195E+01  0.2730E+02
   6.726  0.1184E+01  0.2732E+02
   6.736  0.1173E+01  0.2733E+02
   6.746  0.1161E+01  0.2734E+02
   6.756  0.1150E+01  0.2735E+02
   6.766  0.1138E+01  0.2736E+02
   6.776  0.1127E+01  0.2737E+02
   6.786  0.1115E+01  0.2738E+02
   6.796  0.1103E+01  0.2740E+02
   6.806  0.1091E+01  0.2741E+02
   6.816  0.1080E+01  0.2742E+02
   6.826  0.1067E+01  0.2743E+02
   6.836  0.1055E+01  0.2744E+02
   6.846  0.1043E+01  0.2745E+02
   6.856  0.1031E+01  0.2746E+02
   6.866  0.1019E+01  0.2747E+02
   6.876  0.1006E+01  0.2748E+02
   6.886  0.9939E+00  0.2749E+02
   6.896  0.9815E+00  0.2750E+02
   6.906  0.9691E+00  0.2751E+02
   6.916  0.9566E+00  0.2752E+02
   6.926  0.9442E+00  0.2753E+02
   6.936  0.9317E+00  0.2754E+02
   6.946  0.9192E+00  0.2755E+02
   6.956  0.9067E+00  0.2756E+02
   6.966  0.8943E+00  0.2756E+02
   6.976  0.8819E+00  0.2757E+02
   6.986  0.8695E+00  0.2758E+02
   6.996  0.8571E+00  0.2759E+02
   7.006  0.8448E+00  0.2760E+02
   7.016  0.8325E+00  0.2761E+02
   7.026  0.8203E+00  0.2762E+02
   7.036  0.8081E+00  0.2762E+02
   7.046  0.7960E+00  0.2763E+02
   7.056  0.7839E+00  0.2764E+02
   7.066  0.7720E+00  0.2765E+02
   7.076  0.7601E+00  0.2765E+02
   7.086  0.7483E+00  0.2766E+02
   7.096  0.7366E+00  0.2767E+02
   7.106  0.7250E+00  0.2768E+02
   7.116  0.7134E+00  0.2768E+02
   7.126  0.7020E+00  0.2769E+02
   7.136  0.6907E+00  0.2770E+02
   7.146  0.6795E+00  0.2770E+02
   7.156  0.6684E+00  0.2771E+02
   7.166  0.6574E+00  0.2772E+02
   7.176  0.6465E+00  0.2772E+02
   7.186  0.6358E+00  0.2773E+02
   7.196  0.6251E+00  0.2774E+02
   7.206  0.6146E+00  0.2774E+02
   7.216  0.6042E+00  0.2775E+02
   7.226  0.5939E+00  0.2775E+02
   7.236  0.5838E+00  0.2776E+02
   7.246  0.5738E+00  0.2777E+02
   7.256  0.5639E+00  0.2777E+02
   7.266  0.5541E+00  0.2778E+02
   7.276  0.5445E+00  0.2778E+02
   7.286  0.5349E+00  0.2779E+02
   7.296  0.5256E+00  0.2779E+02
   7.306  0.5163E+00  0.2780E+02
   7.316  0.5071E+00  0.2780E+02
   7.326  0.4981E+00  0.2781E+02
   7.336  0.4892E+00  0.2781E+02
   7.346  0.4805E+00  0.2782E+02
   7.356  0.4718E+00  0.2782E+02
   7.366  0.4633E+00  0.2783E+02
   7.376  0.4549E+00  0.2783E+02
   7.386  0.4466E+00  0.2784E+02
   7.396  0.4384E+00  0.2784E+02
   7.406  0.4303E+00  0.2785E+02
   7.416  0.4224E+00  0.2785E+02
   7.426  0.4146E+00  0.2785E+02
   7.436  0.4068E+00  0.2786E+02
   7.446  0.3992E+00  0.2786E+02
   7.456  0.3918E+00  0.2787E+02
   7.466  0.3844E+00  0.2787E+02
   7.476  0.3771E+00  0.2787E+02
   7.486  0.3700E+00  0.2788E+02
   7.496  0.3629E+00  0.2788E+02
   7.506  0.3560E+00  0.2788E+02
   7.516  0.3492E+00  0.2789E+02
   7.526  0.3424E+00  0.2789E+02
   7.536  0.3358E+00  0.2789E+02
   7.546  0.3293E+00  0.2790E+02
   7.556  0.3229E+00  0.2790E+02
   7.566  0.3166E+00  0.2790E+02
   7.576  0.3104E+00  0.2791E+02
   7.586  0.3044E+00  0.2791E+02
   7.596  0.2984E+00  0.2791E+02
   7.606  0.2925E+00  0.2792E+02
   7.616  0.2868E+00  0.2792E+02
   7.626  0.2811E+00  0.2792E+02
   7.636  0.2756E+00  0.2792E+02
   7.646  0.2702E+00  0.2793E+02
   7.656  0.2649E+00  0.2793E+02
   7.666  0.2597E+00  0.2793E+02
   7.676  0.2546E+00  0.2794E+02
   7.686  0.2496E+00  0.2794E+02
   7.696  0.2447E+00  0.2794E+02
   7.706  0.2400E+00  0.2794E+02
   7.716  0.2354E+00  0.2794E+02
   7.726  0.2308E+00  0.2795E+02
   7.736  0.2264E+00  0.2795E+02
   7.746  0.2222E+00  0.2795E+02
   7.756  0.2180E+00  0.2795E+02
   7.766  0.2140E+00  0.2796E+02
   7.776  0.2101E+00  0.2796E+02
   7.786  0.2063E+00  0.2796E+02
   7.796  0.2026E+00  0.2796E+02
   7.806  0.1991E+00  0.2796E+02
   7.816  0.1957E+00  0.2797E+02
   7.826  0.1925E+00  0.2797E+02
   7.836  0.1893E+00  0.2797E+02
   7.846  0.1863E+00  0.2797E+02
   7.856  0.1835E+00  0.2797E+02
   7.866  0.1808E+00  0.2798E+02
   7.876  0.1782E+00  0.2798E+02
   7.886  0.1758E+00  0.2798E+02
   7.896  0.1735E+00  0.2798E+02
   7.906  0.1714E+00  0.2798E+02
   7.916  0.1695E+00  0.2798E+02
   7.926  0.1677E+00  0.2799E+02
   7.936  0.1660E+00  0.2799E+02
   7.946  0.1646E+00  0.2799E+02
   7.956  0.1633E+00  0.2799E+02
   7.966  0.1621E+00  0.2799E+02
   7.976  0.1611E+00  0.2799E+02
   7.986  0.1604E+00  0.2800E+02
   7.996  0.1597E+00  0.2800E+02
   8.006  0.1593E+00  0.2800E+02
   8.016  0.1590E+00  0.2800E+02
   8.026  0.1590E+00  0.2800E+02
   8.036  0.1591E+00  0.2800E+02
   8.046  0.1594E+00  0.2801E+02
   8.056  0.1599E+00  0.2801E+02
   8.066  0.1606E+00  0.2801E+02
   8.076  0.1615E+00  0.2801E+02
   8.086  0.1626E+00  0.2801E+02
   8.096  0.1640E+00  0.2801E+02
   8.106  0.1655E+00  0.2802E+02
   8.116  0.1672E+00  0.2802E+02
   8.126  0.1692E+00  0.2802E+02
   8.136  0.1713E+00  0.2802E+02
   8.146  0.1737E+00  0.2802E+02
   8.156  0.1763E+00  0.2802E+02
   8.166  0.1791E+00  0.2803E+02
   8.176  0.1821E+00  0.2803E+02
   8.186  0.1853E+00  0.2803E+02
   8.196  0.1888E+00  0.2803E+02
   8.206  0.1925E+00  0.2803E+02
   8.216  0.1964E+00  0.2803E+02
   8.226  0.2005E+00  0.2804E+02
   8.236  0.2049E+00  0.2804E+02
   8.246  0.2095E+00  0.2804E+02
   8.256  0.2143E+00  0.2804E+02
   8.266  0.2194E+00  0.2805E+02
   8.276  0.2246E+00  0.2805E+02
   8.286  0.2301E+00  0.2805E+02
   8.296  0.2359E+00  0.2805E+02
   8.306  0.2418E+00  0.2805E+02
   8.316  0.2480E+00  0.2806E+02
   8.326  0.2544E+00  0.2806E+02
   8.336  0.2611E+00  0.2806E+02
   8.346  0.2680E+00  0.2806E+02
   8.356  0.2751E+00  0.2807E+02
   8.366  0.2824E+00  0.2807E+02
   8.376  0.2900E+00  0.2807E+02
   8.386  0.2978E+00  0.2808E+02
   8.396  0.3058E+00  0.2808E+02
   8.406  0.3141E+00  0.2808E+02
   8.416  0.3226E+00  0.2809E+02
   8.426  0.3313E+00  0.2809E+02
   8.436  0.3403E+00  0.2809E+02
   8.446  0.3495E+00  0.2810E+02
   8.456  0.3590E+00  0.2810E+02
   8.466  0.3687E+00  0.2810E+02
   8.476  0.3786E+00  0.2811E+02
   8.486  0.3888E+00  0.2811E+02
   8.496  0.3992E+00  0.2811E+02
   8.506  0.4099E+00  0.2812E+02
   8.516  0.4208E+00  0.2812E+02
   8.526  0.4320E+00  0.2813E+02
   8.536  0.4434E+00  0.2813E+02
   8.546  0.4551E+00  0.2814E+02
   8.556  0.4671E+00  0.2814E+02
   8.566  0.4793E+00  0.2815E+02
   8.576  0.4918E+00  0.2815E+02
   8.586  0.5045E+00  0.2816E+02
   8.596  0.5175E+00  0.2816E+02
   8.606  0.5308E+00  0.2817E+02
   8.616  0.5444E+00  0.2817E+02
   8.626  0.5582E+00  0.2818E+02
   8.636  0.5723E+00  0.2818E+02
   8.646  0.5866E+00  0.2819E+02
   8.656  0.6013E+00  0.2820E+02
   8.666  0.6162E+00  0.2820E+02
   8.676  0.6314E+00  0.2821E+02
   8.686  0.6468E+00  0.2821E+02
   8.696  0.6625E+00  0.2822E+02
   8.706  0.6785E+00  0.2823E+02
   8.716  0.6948E+00  0.2823E+02
   8.726  0.7113E+00  0.2824E+02
   8.736  0.7280E+00  0.2825E+02
   8.746  0.7450E+00  0.2826E+02
   8.756  0.7623E+00  0.2826E+02
   8.766  0.7798E+00  0.2827E+02
   8.776  0.7975E+00  0.2828E+02
   8.786  0.8155E+00  0.2829E+02
   8.796  0.8337E+00  0.2830E+02
   8.806  0.8520E+00  0.2830E+02
   8.816  0.8706E+00  0.2831E+02
   8.826  0.8893E+00  0.2832E+02
   8.836  0.9083E+00  0.2833E+02
   8.846  0.9274E+00  0.2834E+02
   8.856  0.9466E+00  0.2835E+02
   8.866  0.9660E+00  0.2836E+02
   8.876  0.9854E+00  0.2837E+02
   8.886  0.1005E+01  0.2838E+02
   8.896  0.1025E+01  0.2839E+02
   8.906  0.1044E+01  0.2840E+02
   8.916  0.1064E+01  0.2841E+02
   8.926  0.1084E+01  0.2842E+02
   8.936  0.1104E+01  0.2843E+02
   8.946  0.1124E+01  0.2844E+02
   8.956  0.1143E+01  0.2846E+02
   8.966  0.1163E+01  0.2847E+02
   8.976  0.1183E+01  0.2848E+02
   8.986  0.1202E+01  0.2849E+02
   8.996  0.1222E+01  0.2850E+02
   9.006  0.1241E+01  0.2852E+02
   9.016  0.1260E+01  0.2853E+02
   9.026  0.1279E+01  0.2854E+02
   9.036  0.1298E+01  0.2855E+02
   9.046  0.1316E+01  0.2857E+02
   9.056  0.1334E+01  0.2858E+02
   9.066  0.1352E+01  0.2859E+02
   9.076  0.1370E+01  0.2861E+02
   9.086  0.1387E+01  0.2862E+02
   9.096  0.1404E+01  0.2864E+02
   9.106  0.1421E+01  0.2865E+02
   9.116  0.1437E+01  0.2866E+02
   9.126  0.1453E+01  0.2868E+02
   9.136  0.1468E+01  0.2869E+02
   9.146  0.1483E+01  0.2871E+02
   9.156  0.1497E+01  0.2872E+02
   9.166  0.1511E+01  0.2874E+02
   9.176  0.1525E+01  0.2875E+02
   9.186  0.1537E+01  0.2877E+02
   9.196  0.1550E+01  0.2878E+02
   9.206  0.1562E+01  0.2880E+02
   9.216  0.1573E+01  0.2882E+02
   9.226  0.1583E+01  0.2883E+02
   9.236  0.1593E+01  0.2885E+02
   9.246  0.1603E+01  0.2886E+02
   9.256  0.1612E+01  0.2888E+02
   9.266  0.1620E+01  0.2890E+02
   9.276  0.1627E+01  0.2891E+02
   9.286  0.1634E+01  0.2893E+02
   9.296  0.1640E+01  0.2894E+02
   9.306  0.1646E+01  0.2896E+02
   9.316  0.1651E+01  0.2898E+02
   9.326  0.1655E+01  0.2899E+02
   9.336  0.1659E+01  0.2901E+02
   9.346  0.1662E+01  0.2903E+02
   9.356  0.1665E+01  0.2904E+02
   9.366  0.1666E+01  0.2906E+02
   9.376  0.1668E+01  0.2908E+02
   9.386  0.1668E+01  0.2909E+02
   9.396  0.1668E+01  0.2911E+02
   9.406  0.1667E+01  0.2913E+02
   9.416  0.1666E+01  0.2914E+02
   9.426  0.1665E+01  0.2916E+02
   9.436  0.1662E+01  0.2918E+02
   9.446  0.1659E+01  0.2919E+02
   9.456  0.1656E+01  0.2921E+02
   9.466  0.1652E+01  0.2923E+02
   9.476  0.1648E+01  0.2924E+02
   9.486  0.1644E+01  0.2926E+02
   9.496  0.1638E+01  0.2928E+02
   9.506  0.1633E+01  0.2929E+02
   9.516  0.1627E+01  0.2931E+02
   9.526  0.1621E+01  0.2933E+02
   9.536  0.1614E+01  0.2934E+02
   9.546  0.1608E+01  0.2936E+02
   9.556  0.1601E+01  0.2937E+02
   9.566  0.1593E+01  0.2939E+02
   9.576  0.1586E+01  0.2941E+02
   9.586  0.1578E+01  0.2942E+02
   9.596  0.1570E+01  0.2944E+02
   9.606  0.1562E+01  0.2945E+02
   9.616  0.1554E+01  0.2947E+02
   9.626  0.1546E+01  0.2948E+02
   9.636  0.1538E+01  0.2950E+02
   9.646  0.1530E+01  0.2951E+02
   9.656  0.1522E+01  0.2953E+02
   9.666  0.1513E+01  0.2954E+02
   9.676  0.1505E+01  0.2956E+02
   9.686  0.1497E+01  0.2957E+02
   9.696  0.1489E+01  0.2959E+02
   9.706  0.1481E+01  0.2960E+02
   9.716  0.1474E+01  0.2962E+02
   9.726  0.1466E+01  0.2963E+02
   9.736  0.1458E+01  0.2965E+02
   9.746  0.1451E+01  0.2966E+02
   9.756  0.1444E+01  0.2968E+02
   9.766  0.1437E+01  0.2969E+02
   9.776  0.1430E+01  0.2971E+02
   9.786  0.1424E+01  0.2972E+02
   9.796  0.1417E+01  0.2973E+02
   9.806  0.1411E+01  0.2975E+02
   9.816  0.1405E+01  0.2976E+02
   9.826  0.1399E+01  0.2978E+02
   9.836  0.1393E+01  0.2979E+02
   9.846  0.1388E+01  0.2980E+02
   9.856  0.1383E+01  0.2982E+02
   9.866  0.1378E+01  0.2983E+02
   9.876  0.1373E+01  0.2985E+02
   9.886  0.1368E+01  0.2986E+02
   9.896  0.1363E+01  0.2987E+02
   9.906  0.1359E+01  0.2989E+02
   9.916  0.1354E+01  0.2990E+02
   9.926  0.1350E+01  0.2991E+02
   9.936  0.1345E+01  0.2993E+02
   9.946  0.1341E+01  0.2994E+02
   9.956  0.1337E+01  0.2995E+02
   9.966  0.1333E+01  0.2997E+02
   9.976  0.1329E+01  0.2998E+02
   9.986  0.1325E+01  0.2999E+02
   9.996  0.1321E+01  0.3001E+02
  10.006  0.1317E+01  0.3002E+02
  10.016  0.1313E+01  0.3003E+02
  10.026  0.1308E+01  0.3005E+02
  10.036  0.1304E+01  0.3006E+02
  10.046  0.1300E+01  0.3007E+02
  10.056  0.1295E+01  0.3009E+02
  10.066  0.1291E+01  0.3010E+02
  10.076  0.1286E+01  0.3011E+02
  10.086  0.1282E+01  0.3012E+02
  10.096  0.1277E+01  0.3014E+02
  10.106  0.1272E+01  0.3015E+02
  10.116  0.1267E+01  0.3016E+02
  10.126  0.1262E+01  0.3017E+02
  10.136  0.1257E+01  0.3019E+02
  10.146  0.1251E+01  0.3020E+02
  10.156  0.1246E+01  0.3021E+02
  10.166  0.1241E+01  0.3022E+02
  10.176  0.1235E+01  0.3024E+02
  10.186  0.1230E+01  0.3025E+02
  10.196  0.1224E+01  0.3026E+02
  10.206  0.1219E+01  0.3027E+02
  10.216  0.1213E+01  0.3029E+02
  10.226  0.1207E+01  0.3030E+02
  10.236  0.1202E+01  0.3031E+02
  10.246  0.1197E+01  0.3032E+02
  10.256  0.1191E+01  0.3033E+02
  10.266  0.1186E+01  0.3035E+02
  10.276  0.1181E+01  0.3036E+02
  10.286  0.1176E+01  0.3037E+02
  10.296  0.1172E+01  0.3038E+02
  10.306  0.1167E+01  0.3039E+02
  10.316  0.1163E+01  0.3040E+02
  10.326  0.1159E+01  0.3042E+02
  10.336  0.1156E+01  0.3043E+02
  10.346  0.1153E+01  0.3044E+02
  10.356  0.1150E+01  0.3045E+02
  10.366  0.1147E+01  0.3046E+02
  10.376  0.1146E+01  0.3047E+02
  10.386  0.1144E+01  0.3048E+02
  10.396  0.1143E+01  0.3050E+02
  10.406  0.1143E+01  0.3051E+02
  10.416  0.1143E+01  0.3052E+02
  10.426  0.1144E+01  0.3053E+02
  10.436  0.1145E+01  0.3054E+02
  10.446  0.1147E+01  0.3055E+02
  10.456  0.1149E+01  0.3056E+02
  10.466  0.1152E+01  0.3058E+02
  10.476  0.1156E+01  0.3059E+02
  10.486  0.1161E+01  0.3060E+02
  10.496  0.1166E+01  0.3061E+02
  10.506  0.1171E+01  0.3062E+02
  10.516  0.1178E+01  0.3063E+02
  10.526  0.1185E+01  0.3065E+02
  10.536  0.1192E+01  0.3066E+02
  10.546  0.1200E+01  0.3067E+02
  10.556  0.1209E+01  0.3068E+02
  10.566  0.1219E+01  0.3069E+02
  10.576  0.1229E+01  0.3071E+02
  10.586  0.1239E+01  0.3072E+02
  10.596  0.1250E+01  0.3073E+02
  10.606  0.1262E+01  0.3074E+02
  10.616  0.1274E+01  0.3076E+02
  10.626  0.1286E+01  0.3077E+02
  10.636  0.1299E+01  0.3078E+02
  10.646  0.1312E+01  0.3080E+02
  10.656  0.1326E+01  0.3081E+02
  10.666  0.1339E+01  0.3082E+02
  10.676  0.1353E+01  0.3084E+02
  10.686  0.1368E+01  0.3085E+02
  10.696  0.1382E+01  0.3086E+02
  10.706  0.1396E+01  0.3088E+02
  10.716  0.1411E+01  0.3089E+02
  10.726  0.1425E+01  0.3091E+02
  10.736  0.1440E+01  0.3092E+02
  10.746  0.1454E+01  0.3094E+02
  10.756  0.1468E+01  0.3095E+02
  10.766  0.1482E+01  0.3096E+02
  10.776  0.1496E+01  0.3098E+02
  10.786  0.1510E+01  0.3099E+02
  10.796  0.1523E+01  0.3101E+02
  10.806  0.1536E+01  0.3103E+02
  10.816  0.1548E+01  0.3104E+02
  10.826  0.1560E+01  0.3106E+02
  10.836  0.1571E+01  0.3107E+02
  10.846  0.1582E+01  0.3109E+02
  10.856  0.1593E+01  0.3110E+02
  10.866  0.1603E+01  0.3112E+02
  10.876  0.1612E+01  0.3114E+02
  10.886  0.1621E+01  0.3115E+02
  10.896  0.1629E+01  0.3117E+02
  10.906  0.1636E+01  0.3118E+02
  10.916  0.1643E+01  0.3120E+02
  10.926  0.1649E+01  0.3122E+02
  10.936  0.1654E+01  0.3123E+02
  10.946  0.1659E+01  0.3125E+02
  10.956  0.1662E+01  0.3127E+02
  10.966  0.1666E+01  0.3128E+02
  10.976  0.1668E+01  0.3130E+02
  10.986  0.1670E+01  0.3132E+02
  10.996  0.1671E+01  0.3133E+02
  11.006  0.1671E+01  0.3135E+02
  11.016  0.1671E+01  0.3137E+02
  11.026  0.1670E+01  0.3138E+02
  11.036  0.1669E+01  0.3140E+02
  11.046  0.1667E+01  0.3142E+02
  11.056  0.1664E+01  0.3143E+02
  11.066  0.1661E+01  0.3145E+02
  11.076  0.1657E+01  0.3147E+02
  11.086  0.1653E+01  0.3148E+02
  11.096  0.1648E+01  0.3150E+02
  11.106  0.1643E+01  0.3152E+02
  11.116  0.1638E+01  0.3153E+02
  11.126  0.1632E+01  0.3155E+02
  11.136  0.1626E+01  0.3157E+02
  11.146  0.1620E+01  0.3158E+02
  11.156  0.1613E+01  0.3160E+02
  11.166  0.1607E+01  0.3161E+02
  11.176  0.1600E+01  0.3163E+02
  11.186  0.1593E+01  0.3165E+02
  11.196  0.1586E+01  0.3166E+02
  11.206  0.1579E+01  0.3168E+02
  11.216  0.1572E+01  0.3169E+02
  11.226  0.1565E+01  0.3171E+02
  11.236  0.1558E+01  0.3172E+02
  11.246  0.1551E+01  0.3174E+02
  11.256  0.1544E+01  0.3176E+02
  11.266  0.1537E+01  0.3177E+02
  11.276  0.1531E+01  0.3179E+02
  11.286  0.1525E+01  0.3180E+02
  11.296  0.1519E+01  0.3182E+02
  11.306  0.1513E+01  0.3183E+02
  11.316  0.1507E+01  0.3185E+02
  11.326  0.1502E+01  0.3186E+02
  11.336  0.1497E+01  0.3188E+02
  11.346  0.1493E+01  0.3189E+02
  11.356  0.1489E+01  0.3191E+02
  11.366  0.1485E+01  0.3192E+02
  11.376  0.1481E+01  0.3194E+02
  11.386  0.1478E+01  0.3195E+02
  11.396  0.1475E+01  0.3197E+02
  11.406  0.1473E+01  0.3198E+02
  11.416  0.1471E+01  0.3200E+02
  11.426  0.1469E+01  0.3201E+02
  11.436  0.1468E+01  0.3202E+02
  11.446  0.1467E+01  0.3204E+02
  11.456  0.1467E+01  0.3205E+02
  11.466  0.1467E+01  0.3207E+02
  11.476  0.1467E+01  0.3208E+02
  11.486  0.1467E+01  0.3210E+02
  11.496  0.1468E+01  0.3211E+02
  11.506  0.1469E+01  0.3213E+02
  11.516  0.1471E+01  0.3214E+02
  11.526  0.1473E+01  0.3216E+02
  11.536  0.1475E+01  0.3217E+02
  11.546  0.1477E+01  0.3219E+02
  11.556  0.1480E+01  0.3220E+02
  11.566  0.1482E+01  0.3222E+02
  11.576  0.1485E+01  0.3223E+02
  11.586  0.1489E+01  0.3225E+02
  11.596  0.1492E+01  0.3226E+02
  11.606  0.1496E+01  0.3228E+02
  11.616  0.1500E+01  0.3229E+02
  11.626  0.1504E+01  0.3231E+02
  11.636  0.1508E+01  0.3232E+02
  11.646  0.1512E+01  0.3234E+02
  11.656  0.1517E+01  0.3235E+02
  11.666  0.1522E+01  0.3237E+02
  11.676  0.1526E+01  0.3238E+02
  11.686  0.1531E+01  0.3240E+02
  11.696  0.1536E+01  0.3241E+02
  11.706  0.1541E+01  0.3243E+02
  11.716  0.1546E+01  0.3244E+02
  11.726  0.1551E+01  0.3246E+02
  11.736  0.1556E+01  0.3247E+02
  11.746  0.1561E+01  0.3249E+02
  11.756  0.1566E+01  0.3251E+02
  11.766  0.1571E+01  0.3252E+02
  11.776  0.1576E+01  0.3254E+02
  11.786  0.1581E+01  0.3255E+02
  11.796  0.1586E+01  0.3257E+02
  11.806  0.1591E+01  0.3258E+02
  11.816  0.1596E+01  0.3260E+02
  11.826  0.1601E+01  0.3262E+02
  11.836  0.1606E+01  0.3263E+02
  11.846  0.1611E+01  0.3265E+02
  11.856  0.1616E+01  0.3266E+02
  11.866  0.1621E+01  0.3268E+02
  11.876  0.1625E+01  0.3270E+02
  11.886  0.1630E+01  0.3271E+02
  11.896  0.1635E+01  0.3273E+02
  11.906  0.1639E+01  0.3275E+02
  11.916  0.1644E+01  0.3276E+02
  11.926  0.1648E+01  0.3278E+02
  11.936  0.1652E+01  0.3280E+02
  11.946  0.1657E+01  0.3281E+02
  11.956  0.1661E+01  0.3283E+02
  11.966  0.1665E+01  0.3285E+02
  11.976  0.1669E+01  0.3286E+02
  11.986  0.1672E+01  0.3288E+02
  11.996  0.1676E+01  0.3290E+02
  12.006  0.1679E+01  0.3291E+02
  12.016  0.1683E+01  0.3293E+02
  12.026  0.1686E+01  0.3295E+02
  12.036  0.1689E+01  0.3296E+02
  12.046  0.1692E+01  0.3298E+02
  12.056  0.1695E+01  0.3300E+02
  12.066  0.1697E+01  0.3301E+02
  12.076  0.1699E+01  0.3303E+02
  12.086  0.1702E+01  0.3305E+02
  12.096  0.1703E+01  0.3307E+02
  12.106  0.1705E+01  0.3308E+02
  12.116  0.1707E+01  0.3310E+02
  12.126  0.1708E+01  0.3312E+02
  12.136  0.1709E+01  0.3313E+02
  12.146  0.1709E+01  0.3315E+02
  12.156  0.1710E+01  0.3317E+02
  12.166  0.1710E+01  0.3318E+02
  12.176  0.1710E+01  0.3320E+02
  12.186  0.1709E+01  0.3322E+02
  12.196  0.1708E+01  0.3324E+02
  12.206  0.1707E+01  0.3325E+02
  12.216  0.1706E+01  0.3327E+02
  12.226  0.1704E+01  0.3329E+02
  12.236  0.1702E+01  0.3330E+02
  12.246  0.1699E+01  0.3332E+02
  12.256  0.1697E+01  0.3334E+02
  12.266  0.1694E+01  0.3336E+02
  12.276  0.1690E+01  0.3337E+02
  12.286  0.1686E+01  0.3339E+02
  12.296  0.1682E+01  0.3341E+02
  12.306  0.1678E+01  0.3342E+02
  12.316  0.1673E+01  0.3344E+02
  12.326  0.1667E+01  0.3346E+02
  12.336  0.1662E+01  0.3347E+02
  12.346  0.1656E+01  0.3349E+02
  12.356  0.1650E+01  0.3351E+02
  12.366  0.1643E+01  0.3352E+02
  12.376  0.1637E+01  0.3354E+02
  12.386  0.1630E+01  0.3355E+02
  12.396  0.1622E+01  0.3357E+02
  12.406  0.1615E+01  0.3359E+02
  12.416  0.1607E+01  0.3360E+02
  12.426  0.1599E+01  0.3362E+02
  12.436  0.1591E+01  0.3363E+02
  12.446  0.1582E+01  0.3365E+02
  12.456  0.1573E+01  0.3367E+02
  12.466  0.1565E+01  0.3368E+02
  12.476  0.1556E+01  0.3370E+02
  12.486  0.1547E+01  0.3371E+02
  12.496  0.1537E+01  0.3373E+02
  12.506  0.1528E+01  0.3374E+02
  12.516  0.1519E+01  0.3376E+02
  12.526  0.1509E+01  0.3377E+02
  12.536  0.1500E+01  0.3379E+02
  12.546  0.1491E+01  0.3380E+02
  12.556  0.1481E+01  0.3382E+02
  12.566  0.1472E+01  0.3383E+02
  12.576  0.1463E+01  0.3385E+02
  12.586  0.1454E+01  0.3386E+02
  12.596  0.1444E+01  0.3388E+02
  12.606  0.1435E+01  0.3389E+02
  12.616  0.1427E+01  0.3391E+02
  12.626  0.1418E+01  0.3392E+02
  12.636  0.1409E+01  0.3393E+02
  12.646  0.1401E+01  0.3395E+02
  12.656  0.1393E+01  0.3396E+02
  12.666  0.1385E+01  0.3398E+02
  12.676  0.1377E+01  0.3399E+02
  12.686  0.1370E+01  0.3400E+02
  12.696  0.1362E+01  0.3402E+02
  12.706  0.1355E+01  0.3403E+02
  12.716  0.1348E+01  0.3404E+02
  12.726  0.1342E+01  0.3406E+02
  12.736  0.1336E+01  0.3407E+02
  12.746  0.1330E+01  0.3408E+02
  12.756  0.1324E+01  0.3410E+02
  12.766  0.1319E+01  0.3411E+02
  12.776  0.1313E+01  0.3412E+02
  12.786  0.1309E+01  0.3414E+02
  12.796  0.1304E+01  0.3415E+02
  12.806  0.1300E+01  0.3416E+02
  12.816  0.1296E+01  0.3418E+02
  12.826  0.1292E+01  0.3419E+02
  12.836  0.1288E+01  0.3420E+02
  12.846  0.1285E+01  0.3421E+02
  12.856  0.1282E+01  0.3423E+02
  12.866  0.1280E+01  0.3424E+02
  12.876  0.1277E+01  0.3425E+02
  12.886  0.1275E+01  0.3427E+02
  12.896  0.1273E+01  0.3428E+02
  12.906  0.1272E+01  0.3429E+02
  12.916  0.1270E+01  0.3430E+02
  12.926  0.1269E+01  0.3432E+02
  12.936  0.1268E+01  0.3433E+02
  12.946  0.1267E+01  0.3434E+02
  12.956  0.1267E+01  0.3435E+02
  12.966  0.1266E+01  0.3437E+02
  12.976  0.1266E+01  0.3438E+02
  12.986  0.1266E+01  0.3439E+02
  12.996  0.1266E+01  0.3440E+02
  13.006  0.1267E+01  0.3442E+02
  13.016  0.1267E+01  0.3443E+02
  13.026  0.1268E+01  0.3444E+02
  13.036  0.1269E+01  0.3446E+02
  13.046  0.1269E+01  0.3447E+02
  13.056  0.1270E+01  0.3448E+02
  13.066  0.1272E+01  0.3449E+02
  13.076  0.1273E+01  0.3451E+02
  13.086  0.1274E+01  0.3452E+02
  13.096  0.1276E+01  0.3453E+02
  13.106  0.1277E+01  0.3454E+02
  13.116  0.1279E+01  0.3456E+02
  13.126  0.1280E+01  0.3457E+02
  13.136  0.1282E+01  0.3458E+02
  13.146  0.1283E+01  0.3460E+02
  13.156  0.1285E+01  0.3461E+02
  13.166  0.1287E+01  0.3462E+02
  13.176  0.1289E+01  0.3463E+02
  13.186  0.1290E+01  0.3465E+02
  13.196  0.1292E+01  0.3466E+02
  13.206  0.1294E+01  0.3467E+02
  13.216  0.1295E+01  0.3469E+02
  13.226  0.1297E+01  0.3470E+02
  13.236  0.1299E+01  0.3471E+02
  13.246  0.1300E+01  0.3473E+02
  13.256  0.1302E+01  0.3474E+02
  13.266  0.1303E+01  0.3475E+02
  13.276  0.1305E+01  0.3476E+02
  13.286  0.1306E+01  0.3478E+02
  13.296  0.1307E+01  0.3479E+02
  13.306  0.1308E+01  0.3480E+02
  13.316  0.1309E+01  0.3482E+02
  13.326  0.1310E+01  0.3483E+02
  13.336  0.1311E+01  0.3484E+02
  13.346  0.1311E+01  0.3486E+02
  13.356  0.1312E+01  0.3487E+02
  13.366  0.1312E+01  0.3488E+02
  13.376  0.1312E+01  0.3490E+02
  13.386  0.1312E+01  0.3491E+02
  13.396  0.1312E+01  0.3492E+02
  13.406  0.1312E+01  0.3493E+02
  13.416  0.1312E+01  0.3495E+02
  13.426  0.1311E+01  0.3496E+02
  13.436  0.1310E+01  0.3497E+02
  13.446  0.1309E+01  0.3499E+02
  13.456  0.1308E+01  0.3500E+02
  13.466  0.1307E+01  0.3501E+02
  13.476  0.1306E+01  0.3503E+02
  13.486  0.1304E+01  0.3504E+02
  13.496  0.1302E+01  0.3505E+02
  13.506  0.1301E+01  0.3507E+02
  13.516  0.1299E+01  0.3508E+02
  13.526  0.1297E+01  0.3509E+02
  13.536  0.1294E+01  0.3510E+02
  13.546  0.1292E+01  0.3512E+02
  13.556  0.1289E+01  0.3513E+02
  13.566  0.1287E+01  0.3514E+02
  13.576  0.1284E+01  0.3516E+02
  13.586  0.1281E+01  0.3517E+02
  13.596  0.1278E+01  0.3518E+02
  13.606  0.1275E+01  0.3519E+02
  13.616  0.1272E+01  0.3521E+02
  13.626  0.1269E+01  0.3522E+02
  13.636  0.1266E+01  0.3523E+02
  13.646  0.1262E+01  0.3524E+02
  13.656  0.1259E+01  0.3526E+02
  13.666  0.1256E+01  0.3527E+02
  13.676  0.1253E+01  0.3528E+02
  13.686  0.1249E+01  0.3530E+02
  13.696  0.1246E+01  0.3531E+02
  13.706  0.1243E+01  0.3532E+02
  13.716  0.1240E+01  0.3533E+02
  13.726  0.1237E+01  0.3534E+02
  13.736  0.1234E+01  0.3536E+02
  13.746  0.1231E+01  0.3537E+02
  13.756  0.1229E+01  0.3538E+02
  13.766  0.1226E+01  0.3539E+02
  13.776  0.1224E+01  0.3541E+02
  13.786  0.1221E+01  0.3542E+02
  13.796  0.1219E+01  0.3543E+02
  13.806  0.1217E+01  0.3544E+02
  13.816  0.1216E+01  0.3545E+02
  13.826  0.1214E+01  0.3547E+02
  13.836  0.1213E+01  0.3548E+02
  13.846  0.1212E+01  0.3549E+02
  13.856  0.1211E+01  0.3550E+02
  13.866  0.1210E+01  0.3552E+02
  13.876  0.1210E+01  0.3553E+02
  13.886  0.1209E+01  0.3554E+02
  13.896  0.1209E+01  0.3555E+02
  13.906  0.1210E+01  0.3556E+02
  13.916  0.1210E+01  0.3558E+02
  13.926  0.1211E+01  0.3559E+02
  13.936  0.1212E+01  0.3560E+02
  13.946  0.1213E+01  0.3561E+02
  13.956  0.1215E+01  0.3562E+02
  13.966  0.1217E+01  0.3564E+02
  13.976  0.1219E+01  0.3565E+02
  13.986  0.1221E+01  0.3566E+02
  13.996  0.1223E+01  0.3567E+02
  14.006  0.1226E+01  0.3569E+02
  14.016  0.1229E+01  0.3570E+02
  14.026  0.1232E+01  0.3571E+02
  14.036  0.1235E+01  0.3572E+02
  14.046  0.1239E+01  0.3573E+02
  14.056  0.1242E+01  0.3575E+02
  14.066  0.1246E+01  0.3576E+02
  14.076  0.1250E+01  0.3577E+02
  14.086  0.1254E+01  0.3578E+02
  14.096  0.1258E+01  0.3580E+02
  14.106  0.1263E+01  0.3581E+02
  14.116  0.1267E+01  0.3582E+02
  14.126  0.1272E+01  0.3584E+02
  14.136  0.1276E+01  0.3585E+02
  14.146  0.1281E+01  0.3586E+02
  14.156  0.1285E+01  0.3587E+02
  14.166  0.1290E+01  0.3589E+02
  14.176  0.1295E+01  0.3590E+02
  14.186  0.1300E+01  0.3591E+02
  14.196  0.1305E+01  0.3593E+02
  14.206  0.1309E+01  0.3594E+02
  14.216  0.1314E+01  0.3595E+02
  14.226  0.1319E+01  0.3597E+02
  14.236  0.1324E+01  0.3598E+02
  14.246  0.1328E+01  0.3599E+02
  14.256  0.1333E+01  0.3601E+02
  14.266  0.1338E+01  0.3602E+02
  14.276  0.1342E+01  0.3603E+02
  14.286  0.1347E+01  0.3605E+02
  14.296  0.1351E+01  0.3606E+02
  14.306  0.1355E+01  0.3607E+02
  14.316  0.1360E+01  0.3609E+02
  14.326  0.1364E+01  0.3610E+02
  14.336  0.1368E+01  0.3611E+02
  14.346  0.1372E+01  0.3613E+02
  14.356  0.1376E+01  0.3614E+02
  14.366  0.1381E+01  0.3615E+02
  14.376  0.1384E+01  0.3617E+02
  14.386  0.1388E+01  0.3618E+02
  14.396  0.1392E+01  0.3620E+02
  14.406  0.1396E+01  0.3621E+02
  14.416  0.1400E+01  0.3622E+02
  14.426  0.1404E+01  0.3624E+02
  14.436  0.1408E+01  0.3625E+02
  14.446  0.1412E+01  0.3627E+02
  14.456  0.1416E+01  0.3628E+02
  14.466  0.1419E+01  0.3629E+02
  14.476  0.1423E+01  0.3631E+02
  14.486  0.1427E+01  0.3632E+02
  14.496  0.1431E+01  0.3634E+02
  14.506  0.1435E+01  0.3635E+02
  14.516  0.1440E+01  0.3637E+02
  14.526  0.1444E+01  0.3638E+02
  14.536  0.1448E+01  0.3640E+02
  14.546  0.1453E+01  0.3641E+02
  14.556  0.1457E+01  0.3642E+02
  14.566  0.1462E+01  0.3644E+02
  14.576  0.1467E+01  0.3645E+02
  14.586  0.1471E+01  0.3647E+02
  14.596  0.1476E+01  0.3648E+02
  14.606  0.1482E+01  0.3650E+02
  14.616  0.1487E+01  0.3651E+02
  14.626  0.1493E+01  0.3653E+02
  14.636  0.1498E+01  0.3654E+02
  14.646  0.1504E+01  0.3656E+02
  14.656  0.1510E+01  0.3657E+02
  14.666  0.1516E+01  0.3659E+02
  14.676  0.1523E+01  0.3660E+02
  14.686  0.1529E+01  0.3662E+02
  14.696  0.1536E+01  0.3663E+02
  14.706  0.1542E+01  0.3665E+02
  14.716  0.1549E+01  0.3666E+02
  14.726  0.1557E+01  0.3668E+02
  14.736  0.1564E+01  0.3670E+02
  14.746  0.1571E+01  0.3671E+02
  14.756  0.1579E+01  0.3673E+02
  14.766  0.1586E+01  0.3674E+02
  14.776  0.1594E+01  0.3676E+02
  14.786  0.1602E+01  0.3678E+02
  14.796  0.1610E+01  0.3679E+02
  14.806  0.1617E+01  0.3681E+02
  14.816  0.1625E+01  0.3682E+02
  14.826  0.1633E+01  0.3684E+02
  14.836  0.1641E+01  0.3686E+02
  14.846  0.1649E+01  0.3687E+02
  14.856  0.1657E+01  0.3689E+02
  14.866  0.1665E+01  0.3691E+02
  14.876  0.1673E+01  0.3692E+02
  14.886  0.1681E+01  0.3694E+02
  14.896  0.1689E+01  0.3696E+02
  14.906  0.1697E+01  0.3697E+02
  14.916  0.1704E+01  0.3699E+02
  14.926  0.1712E+01  0.3701E+02
  14.936  0.1719E+01  0.3703E+02
  14.946  0.1726E+01  0.3704E+02
  14.956  0.1733E+01  0.3706E+02
  14.966  0.1740E+01  0.3708E+02
  14.976  0.1746E+01  0.3709E+02
  14.986  0.1752E+01  0.3711E+02
  14.996  0.1758E+01  0.3713E+02
  15.006  0.1764E+01  0.3715E+02
  15.016  0.1770E+01  0.3716E+02
  15.026  0.1775E+01  0.3718E+02
  15.036  0.1780E+01  0.3720E+02
  15.046  0.1785E+01  0.3722E+02
  15.056  0.1789E+01  0.3724E+02
  15.066  0.1793E+01  0.3725E+02
  15.076  0.1797E+01  0.3727E+02
  15.086  0.1800E+01  0.3729E+02
  15.096  0.1803E+01  0.3731E+02
  15.106  0.1806E+01  0.3733E+02
  15.116  0.1808E+01  0.3734E+02
  15.126  0.1811E+01  0.3736E+02
  15.136  0.1812E+01  0.3738E+02
  15.146  0.1814E+01  0.3740E+02
  15.156  0.1815E+01  0.3742E+02
  15.166  0.1816E+01  0.3744E+02
  15.176  0.1816E+01  0.3745E+02
  15.186  0.1816E+01  0.3747E+02
  15.196  0.1816E+01  0.3749E+02
  15.206  0.1816E+01  0.3751E+02
  15.216  0.1815E+01  0.3753E+02
  15.226  0.1814E+01  0.3754E+02
  15.236  0.1812E+01  0.3756E+02
  15.246  0.1811E+01  0.3758E+02
  15.256  0.1809E+01  0.3760E+02
  15.266  0.1807E+01  0.3762E+02
  15.276  0.1804E+01  0.3763E+02
  15.286  0.1802E+01  0.3765E+02
  15.296  0.1799E+01  0.3767E+02
  15.306  0.1796E+01  0.3769E+02
  15.316  0.1793E+01  0.3771E+02
  15.326  0.1789E+01  0.3772E+02
  15.336  0.1786E+01  0.3774E+02
  15.346  0.1782E+01  0.3776E+02
  15.356  0.1778E+01  0.3778E+02
  15.366  0.1774E+01  0.3780E+02
  15.376  0.1770E+01  0.3781E+02
  15.386  0.1766E+01  0.3783E+02
  15.396  0.1761E+01  0.3785E+02
  15.406  0.1757E+01  0.3787E+02
  15.416  0.1752E+01  0.3788E+02
  15.426  0.1748E+01  0.3790E+02
  15.436  0.1743E+01  0.3792E+02
  15.446  0.1739E+01  0.3794E+02
  15.456  0.1734E+01  0.3795E+02
  15.466  0.1729E+01  0.3797E+02
  15.476  0.1725E+01  0.3799E+02
  15.486  0.1720E+01  0.3800E+02
  15.496  0.1715E+01  0.3802E+02
  15.506  0.1711E+01  0.3804E+02
  15.516  0.1706E+01  0.3806E+02
  15.526  0.1702E+01  0.3807E+02
  15.536  0.1697E+01  0.3809E+02
  15.546  0.1693E+01  0.3811E+02
  15.556  0.1689E+01  0.3812E+02
  15.566  0.1685E+01  0.3814E+02
  15.576  0.1681E+01  0.3816E+02
  15.586  0.1677E+01  0.3817E+02
  15.596  0.1673E+01  0.3819E+02
  15.606  0.1670E+01  0.3821E+02
  15.616  0.1666E+01  0.3822E+02
  15.626  0.1663E+01  0.3824E+02
  15.636  0.1660E+01  0.3826E+02
  15.646  0.1657E+01  0.3827E+02
  15.656  0.1654E+01  0.3829E+02
  15.666  0.1652E+01  0.3831E+02
  15.676  0.1650E+01  0.3832E+02
  15.686  0.1648E+01  0.3834E+02
  15.696  0.1646E+01  0.3836E+02
  15.706  0.1644E+01  0.3837E+02
  15.716  0.1643E+01  0.3839E+02
  15.726  0.1642E+01  0.3841E+02
  15.736  0.1641E+01  0.3842E+02
  15.746  0.1641E+01  0.3844E+02
  15.756  0.1640E+01  0.3846E+02
  15.766  0.1640E+01  0.3847E+02
  15.776  0.1640E+01  0.3849E+02
  15.786  0.1641E+01  0.3850E+02
  15.796  0.1642E+01  0.3852E+02
  15.806  0.1643E+01  0.3854E+02
  15.816  0.1644E+01  0.3855E+02
  15.826  0.1645E+01  0.3857E+02
  15.836  0.1647E+01  0.3859E+02
  15.846  0.1649E+01  0.3860E+02
  15.856  0.1651E+01  0.3862E+02
  15.866  0.1654E+01  0.3864E+02
  15.876  0.1656E+01  0.3865E+02
  15.886  0.1659E+01  0.3867E+02
  15.896  0.1662E+01  0.3869E+02
  15.906  0.1665E+01  0.3870E+02
  15.916  0.1669E+01  0.3872E+02
  15.926  0.1672E+01  0.3874E+02
  15.936  0.1676E+01  0.3875E+02
  15.946  0.1680E+01  0.3877E+02
  15.956  0.1684E+01  0.3879E+02
  15.966  0.1688E+01  0.3880E+02
  15.976  0.1692E+01  0.3882E+02
  15.986  0.1697E+01  0.3884E+02
  15.996  0.1701E+01  0.3885E+02
  16.006  0.1705E+01  0.3887E+02
  16.016  0.1710E+01  0.3889E+02
  16.026  0.1714E+01  0.3891E+02
  16.036  0.1719E+01  0.3892E+02
  16.046  0.1723E+01  0.3894E+02
  16.056  0.1728E+01  0.3896E+02
  16.066  0.1732E+01  0.3897E+02
  16.076  0.1737E+01  0.3899E+02
  16.086  0.1741E+01  0.3901E+02
  16.096  0.1746E+01  0.3903E+02
  16.106  0.1750E+01  0.3904E+02
  16.116  0.1754E+01  0.3906E+02
  16.126  0.1758E+01  0.3908E+02
  16.136  0.1762E+01  0.3910E+02
  16.146  0.1766E+01  0.3911E+02
  16.156  0.1770E+01  0.3913E+02
  16.166  0.1774E+01  0.3915E+02
  16.176  0.1777E+01  0.3917E+02
  16.186  0.1780E+01  0.3919E+02
  16.196  0.1784E+01  0.3920E+02
  16.206  0.1787E+01  0.3922E+02
  16.216  0.1790E+01  0.3924E+02
  16.226  0.1792E+01  0.3926E+02
  16.236  0.1795E+01  0.3928E+02
  16.246  0.1798E+01  0.3929E+02
  16.256  0.1800E+01  0.3931E+02
  16.266  0.1802E+01  0.3933E+02
  16.276  0.1804E+01  0.3935E+02
  16.286  0.1806E+01  0.3937E+02
  16.296  0.1808E+01  0.3938E+02
  16.306  0.1810E+01  0.3940E+02
  16.316  0.1812E+01  0.3942E+02
  16.326  0.1813E+01  0.3944E+02
  16.336  0.1815E+01  0.3946E+02
  16.346  0.1816E+01  0.3947E+02
  16.356  0.1818E+01  0.3949E+02
  16.366  0.1819E+01  0.3951E+02
  16.376  0.1820E+01  0.3953E+02
  16.386  0.1821E+01  0.3955E+02
  16.396  0.1822E+01  0.3957E+02
  16.406  0.1824E+01  0.3958E+02
  16.416  0.1825E+01  0.3960E+02
  16.426  0.1826E+01  0.3962E+02
  16.436  0.1827E+01  0.3964E+02
  16.446  0.1828E+01  0.3966E+02
  16.456  0.1829E+01  0.3967E+02
  16.466  0.1830E+01  0.3969E+02
  16.476  0.1831E+01  0.3971E+02
  16.486  0.1833E+01  0.3973E+02
  16.496  0.1834E+01  0.3975E+02
  16.506  0.1835E+01  0.3977E+02
  16.516  0.1837E+01  0.3978E+02
  16.526  0.1838E+01  0.3980E+02
  16.536  0.1840E+01  0.3982E+02
  16.546  0.1841E+01  0.3984E+02
  16.556  0.1843E+01  0.3986E+02
  16.566  0.1845E+01  0.3988E+02
  16.576  0.1847E+01  0.3990E+02
  16.586  0.1849E+01  0.3991E+02
  16.596  0.1851E+01  0.3993E+02
  16.606  0.1853E+01  0.3995E+02
  16.616  0.1855E+01  0.3997E+02
  16.626  0.1857E+01  0.3999E+02
  16.636  0.1859E+01  0.4001E+02
  16.646  0.1861E+01  0.4002E+02
  16.656  0.1864E+01  0.4004E+02
  16.666  0.1866E+01  0.4006E+02
  16.676  0.1868E+01  0.4008E+02
  16.686  0.1871E+01  0.4010E+02
  16.696  0.1873E+01  0.4012E+02
  16.706  0.1876E+01  0.4014E+02
  16.716  0.1878E+01  0.4016E+02
  16.726  0.1880E+01  0.4017E+02
  16.736  0.1883E+01  0.4019E+02
  16.746  0.1885E+01  0.4021E+02
  16.756  0.1888E+01  0.4023E+02
  16.766  0.1890E+01  0.4025E+02
  16.776  0.1892E+01  0.4027E+02
  16.786  0.1894E+01  0.4029E+02
  16.796  0.1896E+01  0.4031E+02
  16.806  0.1898E+01  0.4033E+02
  16.816  0.1900E+01  0.4034E+02
  16.826  0.1902E+01  0.4036E+02
  16.836  0.1904E+01  0.4038E+02
  16.846  0.1906E+01  0.4040E+02
  16.856  0.1907E+01  0.4042E+02
  16.866  0.1909E+01  0.4044E+02
  16.876  0.1910E+01  0.4046E+02
  16.886  0.1911E+01  0.4048E+02
  16.896  0.1912E+01  0.4050E+02
  16.906  0.1913E+01  0.4052E+02
  16.916  0.1914E+01  0.4054E+02
  16.926  0.1915E+01  0.4056E+02
  16.936  0.1915E+01  0.4057E+02
  16.946  0.1916E+01  0.4059E+02
  16.956  0.1916E+01  0.4061E+02
  16.966  0.1917E+01  0.4063E+02
  16.976  0.1917E+01  0.4065E+02
  16.986  0.1917E+01  0.4067E+02
  16.996  0.1917E+01  0.4069E+02
  17.006  0.1917E+01  0.4071E+02
  17.016  0.1917E+01  0.4073E+02
  17.026  0.1917E+01  0.4075E+02
  17.036  0.1917E+01  0.4077E+02
  17.046  0.1917E+01  0.4079E+02
  17.056  0.1916E+01  0.4080E+02
  17.066  0.1916E+01  0.4082E+02
  17.076  0.1916E+01  0.4084E+02
  17.086  0.1916E+01  0.4086E+02
  17.096  0.1916E+01  0.4088E+02
  17.106  0.1915E+01  0.4090E+02
  17.116  0.1915E+01  0.4092E+02
  17.126  0.1915E+01  0.4094E+02
  17.136  0.1915E+01  0.4096E+02
  17.146  0.1915E+01  0.4098E+02
  17.156  0.1916E+01  0.4100E+02
  17.166  0.1916E+01  0.4101E+02
  17.176  0.1916E+01  0.4103E+02
  17.186  0.1917E+01  0.4105E+02
  17.196  0.1918E+01  0.4107E+02
  17.206  0.1919E+01  0.4109E+02
  17.216  0.1920E+01  0.4111E+02
  17.226  0.1921E+01  0.4113E+02
  17.236  0.1922E+01  0.4115E+02
  17.246  0.1924E+01  0.4117E+02
  17.256  0.1925E+01  0.4119E+02
  17.266  0.1927E+01  0.4121E+02
  17.276  0.1929E+01  0.4123E+02
  17.286  0.1932E+01  0.4125E+02
  17.296  0.1934E+01  0.4126E+02
  17.306  0.1937E+01  0.4128E+02
  17.316  0.1939E+01  0.4130E+02
  17.326  0.1942E+01  0.4132E+02
  17.336  0.1945E+01  0.4134E+02
  17.346  0.1949E+01  0.4136E+02
  17.356  0.1952E+01  0.4138E+02
  17.366  0.1956E+01  0.4140E+02
  17.376  0.1959E+01  0.4142E+02
  17.386  0.1963E+01  0.4144E+02
  17.396  0.1967E+01  0.4146E+02
  17.406  0.1971E+01  0.4148E+02
  17.416  0.1976E+01  0.4150E+02
  17.426  0.1980E+01  0.4152E+02
  17.436  0.1984E+01  0.4154E+02
  17.446  0.1989E+01  0.4156E+02
  17.456  0.1993E+01  0.4158E+02
  17.466  0.1998E+01  0.4160E+02
  17.476  0.2002E+01  0.4162E+02
  17.486  0.2007E+01  0.4164E+02
  17.496  0.2012E+01  0.4166E+02
  17.506  0.2016E+01  0.4168E+02
  17.516  0.2021E+01  0.4170E+02
  17.526  0.2025E+01  0.4172E+02
  17.536  0.2030E+01  0.4174E+02
  17.546  0.2034E+01  0.4176E+02
  17.556  0.2038E+01  0.4178E+02
  17.566  0.2042E+01  0.4180E+02
  17.576  0.2046E+01  0.4182E+02
  17.586  0.2050E+01  0.4184E+02
  17.596  0.2053E+01  0.4186E+02
  17.606  0.2057E+01  0.4188E+02
  17.616  0.2060E+01  0.4190E+02
  17.626  0.2063E+01  0.4192E+02
  17.636  0.2066E+01  0.4195E+02
  17.646  0.2069E+01  0.4197E+02
  17.656  0.2071E+01  0.4199E+02
  17.666  0.2073E+01  0.4201E+02
  17.676  0.2075E+01  0.4203E+02
  17.686  0.2077E+01  0.4205E+02
  17.696  0.2078E+01  0.4207E+02
  17.706  0.2079E+01  0.4209E+02
  17.716  0.2080E+01  0.4211E+02
  17.726  0.2080E+01  0.4213E+02
  17.736  0.2081E+01  0.4215E+02
  17.746  0.2081E+01  0.4217E+02
  17.756  0.2080E+01  0.4219E+02
  17.766  0.2079E+01  0.4222E+02
  17.776  0.2078E+01  0.4224E+02
  17.786  0.2077E+01  0.4226E+02
  17.796  0.2076E+01  0.4228E+02
  17.806  0.2074E+01  0.4230E+02
  17.816  0.2072E+01  0.4232E+02
  17.826  0.2069E+01  0.4234E+02
  17.836  0.2067E+01  0.4236E+02
  17.846  0.2064E+01  0.4238E+02
  17.856  0.2060E+01  0.4240E+02
  17.866  0.2057E+01  0.4242E+02
  17.876  0.2053E+01  0.4244E+02
  17.886  0.2049E+01  0.4246E+02
  17.896  0.2045E+01  0.4248E+02
  17.906  0.2041E+01  0.4250E+02
  17.916  0.2036E+01  0.4252E+02
  17.926  0.2032E+01  0.4254E+02
  17.936  0.2027E+01  0.4256E+02
  17.946  0.2021E+01  0.4259E+02
  17.956  0.2016E+01  0.4261E+02
  17.966  0.2011E+01  0.4263E+02
  17.976  0.2005E+01  0.4265E+02
  17.986  0.1999E+01  0.4267E+02
  17.996  0.1994E+01  0.4269E+02
  18.006  0.1988E+01  0.4271E+02
  18.016  0.1982E+01  0.4273E+02
  18.026  0.1976E+01  0.4274E+02
  18.036  0.1969E+01  0.4276E+02
  18.046  0.1963E+01  0.4278E+02
  18.056  0.1957E+01  0.4280E+02
  18.066  0.1951E+01  0.4282E+02
  18.076  0.1944E+01  0.4284E+02
  18.086  0.1938E+01  0.4286E+02
  18.096  0.1932E+01  0.4288E+02
  18.106  0.1925E+01  0.4290E+02
  18.116  0.1919E+01  0.4292E+02
  18.126  0.1912E+01  0.4294E+02
  18.136  0.1906E+01  0.4296E+02
  18.146  0.1900E+01  0.4298E+02
  18.156  0.1894E+01  0.4300E+02
  18.166  0.1887E+01  0.4301E+02
  18.176  0.1881E+01  0.4303E+02
  18.186  0.1875E+01  0.4305E+02
  18.196  0.1869E+01  0.4307E+02
  18.206  0.1863E+01  0.4309E+02
  18.216  0.1858E+01  0.4311E+02
  18.226  0.1852E+01  0.4313E+02
  18.236  0.1846E+01  0.4315E+02
  18.246  0.1841E+01  0.4316E+02
  18.256  0.1836E+01  0.4318E+02
  18.266  0.1830E+01  0.4320E+02
  18.276  0.1825E+01  0.4322E+02
  18.286  0.1820E+01  0.4324E+02
  18.296  0.1816E+01  0.4325E+02
  18.306  0.1811E+01  0.4327E+02
  18.316  0.1806E+01  0.4329E+02
  18.326  0.1802E+01  0.4331E+02
  18.336  0.1798E+01  0.4333E+02
  18.346  0.1794E+01  0.4335E+02
  18.356  0.1790E+01  0.4336E+02
  18.366  0.1787E+01  0.4338E+02
  18.376  0.1784E+01  0.4340E+02
  18.386  0.1780E+01  0.4342E+02
  18.396  0.1777E+01  0.4343E+02
  18.406  0.1775E+01  0.4345E+02
  18.416  0.1772E+01  0.4347E+02
  18.426  0.1770E+01  0.4349E+02
  18.436  0.1768E+01  0.4351E+02
  18.446  0.1766E+01  0.4352E+02
  18.456  0.1765E+01  0.4354E+02
  18.466  0.1763E+01  0.4356E+02
  18.476  0.1762E+01  0.4358E+02
  18.486  0.1761E+01  0.4359E+02
  18.496  0.1761E+01  0.4361E+02
  18.506  0.1760E+01  0.4363E+02
  18.516  0.1760E+01  0.4365E+02
  18.526  0.1760E+01  0.4366E+02
  18.536  0.1761E+01  0.4368E+02
  18.546  0.1761E+01  0.4370E+02
  18.556  0.1762E+01  0.4372E+02
  18.566  0.1763E+01  0.4373E+02
  18.576  0.1764E+01  0.4375E+02
  18.586  0.1766E+01  0.4377E+02
  18.596  0.1767E+01  0.4379E+02
  18.606  0.1769E+01  0.4380E+02
  18.616  0.1771E+01  0.4382E+02
  18.626  0.1773E+01  0.4384E+02
  18.636  0.1775E+01  0.4386E+02
  18.646  0.1778E+01  0.4388E+02
  18.656  0.1780E+01  0.4389E+02
  18.666  0.1783E+01  0.4391E+02
  18.676  0.1786E+01  0.4393E+02
  18.686  0.1788E+01  0.4395E+02
  18.696  0.1791E+01  0.4397E+02
  18.706  0.1794E+01  0.4398E+02
  18.716  0.1797E+01  0.4400E+02
  18.726  0.1800E+01  0.4402E+02
  18.736  0.1803E+01  0.4404E+02
  18.746  0.1805E+01  0.4406E+02
  18.756  0.1808E+01  0.4407E+02
  18.766  0.1811E+01  0.4409E+02
  18.776  0.1813E+01  0.4411E+02
  18.786  0.1816E+01  0.4413E+02
  18.796  0.1818E+01  0.4415E+02
  18.806  0.1820E+01  0.4416E+02
  18.816  0.1822E+01  0.4418E+02
  18.826  0.1823E+01  0.4420E+02
  18.836  0.1825E+01  0.4422E+02
  18.846  0.1826E+01  0.4424E+02
  18.856  0.1826E+01  0.4426E+02
  18.866  0.1827E+01  0.4427E+02
  18.876  0.1827E+01  0.4429E+02
  18.886  0.1827E+01  0.4431E+02
  18.896  0.1826E+01  0.4433E+02
  18.906  0.1825E+01  0.4435E+02
  18.916  0.1824E+01  0.4436E+02
  18.926  0.1822E+01  0.4438E+02
  18.936  0.1820E+01  0.4440E+02
  18.946  0.1818E+01  0.4442E+02
  18.956  0.1815E+01  0.4444E+02
  18.966  0.1811E+01  0.4446E+02
  18.976  0.1807E+01  0.4447E+02
  18.986  0.1803E+01  0.4449E+02
  18.996  0.1798E+01  0.4451E+02
  19.006  0.1793E+01  0.4453E+02
  19.016  0.1787E+01  0.4455E+02
  19.026  0.1781E+01  0.4456E+02
  19.036  0.1774E+01  0.4458E+02
  19.046  0.1767E+01  0.4460E+02
  19.056  0.1759E+01  0.4462E+02
  19.066  0.1751E+01  0.4463E+02
  19.076  0.1743E+01  0.4465E+02
  19.086  0.1734E+01  0.4467E+02
  19.096  0.1724E+01  0.4469E+02
  19.106  0.1714E+01  0.4470E+02
  19.116  0.1704E+01  0.4472E+02
  19.126  0.1693E+01  0.4474E+02
  19.136  0.1682E+01  0.4475E+02
  19.146  0.1670E+01  0.4477E+02
  19.156  0.1659E+01  0.4479E+02
  19.166  0.1646E+01  0.4480E+02
  19.176  0.1634E+01  0.4482E+02
  19.186  0.1621E+01  0.4484E+02
  19.196  0.1608E+01  0.4485E+02
  19.206  0.1595E+01  0.4487E+02
  19.216  0.1581E+01  0.4488E+02
  19.226  0.1568E+01  0.4490E+02
  19.236  0.1554E+01  0.4492E+02
  19.246  0.1540E+01  0.4493E+02
  19.256  0.1526E+01  0.4495E+02
  19.266  0.1511E+01  0.4496E+02
  19.276  0.1497E+01  0.4498E+02
  19.286  0.1483E+01  0.4499E+02
  19.296  0.1468E+01  0.4501E+02
  19.306  0.1454E+01  0.4502E+02
  19.316  0.1440E+01  0.4503E+02
  19.326  0.1426E+01  0.4505E+02
  19.336  0.1412E+01  0.4506E+02
  19.346  0.1398E+01  0.4508E+02
  19.356  0.1384E+01  0.4509E+02
  19.366  0.1371E+01  0.4510E+02
  19.376  0.1357E+01  0.4512E+02
  19.386  0.1344E+01  0.4513E+02
  19.396  0.1332E+01  0.4514E+02
  19.406  0.1320E+01  0.4516E+02
  19.416  0.1308E+01  0.4517E+02
  19.426  0.1296E+01  0.4518E+02
  19.436  0.1285E+01  0.4520E+02
  19.446  0.1275E+01  0.4521E+02
  19.456  0.1265E+01  0.4522E+02
  19.466  0.1255E+01  0.4523E+02
  19.476  0.1246E+01  0.4525E+02
  19.486  0.1238E+01  0.4526E+02
  19.496  0.1230E+01  0.4527E+02
  19.506  0.1223E+01  0.4528E+02
  19.516  0.1216E+01  0.4530E+02
  19.526  0.1211E+01  0.4531E+02
  19.536  0.1205E+01  0.4532E+02
  19.546  0.1201E+01  0.4533E+02
  19.556  0.1197E+01  0.4534E+02
  19.566  0.1195E+01  0.4536E+02
  19.576  0.1192E+01  0.4537E+02
  19.586  0.1191E+01  0.4538E+02
  19.596  0.1190E+01  0.4539E+02
  19.606  0.1191E+01  0.4540E+02
  19.616  0.1192E+01  0.4542E+02
  19.626  0.1193E+01  0.4543E+02
  19.636  0.1196E+01  0.4544E+02
  19.646  0.1200E+01  0.4545E+02
  19.656  0.1204E+01  0.4546E+02
  19.666  0.1209E+01  0.4548E+02
  19.676  0.1215E+01  0.4549E+02
  19.686  0.1221E+01  0.4550E+02
  19.696  0.1229E+01  0.4551E+02
  19.706  0.1237E+01  0.4552E+02
  19.716  0.1246E+01  0.4554E+02
  19.726  0.1256E+01  0.4555E+02
  19.736  0.1266E+01  0.4556E+02
  19.746  0.1277E+01  0.4558E+02
  19.756  0.1289E+01  0.4559E+02
  19.766  0.1301E+01  0.4560E+02
  19.776  0.1314E+01  0.4561E+02
  19.786  0.1328E+01  0.4563E+02
  19.796  0.1342E+01  0.4564E+02
  19.806  0.1357E+01  0.4565E+02
  19.816  0.1372E+01  0.4567E+02
  19.826  0.1388E+01  0.4568E+02
  19.836  0.1404E+01  0.4570E+02
  19.846  0.1421E+01  0.4571E+02
  19.856  0.1438E+01  0.4572E+02
  19.866  0.1455E+01  0.4574E+02
  19.876  0.1472E+01  0.4575E+02
  19.886  0.1490E+01  0.4577E+02
  19.896  0.1508E+01  0.4578E+02
  19.906  0.1526E+01  0.4580E+02
  19.916  0.1544E+01  0.4581E+02
  19.926  0.1562E+01  0.4583E+02
  19.936  0.1580E+01  0.4585E+02
  19.946  0.1598E+01  0.4586E+02
  19.956  0.1616E+01  0.4588E+02
  19.966  0.1634E+01  0.4589E+02
  19.976  0.1652E+01  0.4591E+02
  19.986  0.1669E+01  0.4593E+02
  19.996  0.1687E+01  0.4594E+02
  20.006  0.1704E+01  0.4596E+02
  20.016  0.1720E+01  0.4598E+02
  20.026  0.1737E+01  0.4600E+02
  20.036  0.1753E+01  0.4601E+02
  20.046  0.1768E+01  0.4603E+02
  20.056  0.1783E+01  0.4605E+02
  20.066  0.1797E+01  0.4607E+02
  20.076  0.1811E+01  0.4609E+02
  20.086  0.1825E+01  0.4610E+02
  20.096  0.1837E+01  0.4612E+02
  20.106  0.1849E+01  0.4614E+02
  20.116  0.1861E+01  0.4616E+02
  20.126  0.1872E+01  0.4618E+02
  20.136  0.1882E+01  0.4620E+02
  20.146  0.1891E+01  0.4622E+02
  20.156  0.1900E+01  0.4623E+02
  20.166  0.1907E+01  0.4625E+02
  20.176  0.1914E+01  0.4627E+02
  20.186  0.1921E+01  0.4629E+02
  20.196  0.1926E+01  0.4631E+02
  20.206  0.1931E+01  0.4633E+02
  20.216  0.1935E+01  0.4635E+02
  20.226  0.1938E+01  0.4637E+02
  20.236  0.1940E+01  0.4639E+02
  20.246  0.1942E+01  0.4641E+02
  20.256  0.1943E+01  0.4643E+02
  20.266  0.1943E+01  0.4645E+02
  20.276  0.1942E+01  0.4647E+02
  20.286  0.1940E+01  0.4649E+02
  20.296  0.1938E+01  0.4651E+02
  20.306  0.1935E+01  0.4652E+02
  20.316  0.1931E+01  0.4654E+02
  20.326  0.1927E+01  0.4656E+02
  20.336  0.1922E+01  0.4658E+02
  20.346  0.1916E+01  0.4660E+02
  20.356  0.1909E+01  0.4662E+02
  20.366  0.1902E+01  0.4664E+02
  20.376  0.1894E+01  0.4666E+02
  20.386  0.1886E+01  0.4668E+02
  20.396  0.1877E+01  0.4670E+02
  20.406  0.1867E+01  0.4671E+02
  20.416  0.1857E+01  0.4673E+02
  20.426  0.1847E+01  0.4675E+02
  20.436  0.1836E+01  0.4677E+02
  20.446  0.1825E+01  0.4679E+02
  20.456  0.1813E+01  0.4681E+02
  20.466  0.1800E+01  0.4682E+02
  20.476  0.1788E+01  0.4684E+02
  20.486  0.1775E+01  0.4686E+02
  20.496  0.1761E+01  0.4688E+02
  20.506  0.1748E+01  0.4690E+02
  20.516  0.1734E+01  0.4691E+02
  20.526  0.1720E+01  0.4693E+02
  20.536  0.1706E+01  0.4695E+02
  20.546  0.1691E+01  0.4696E+02
  20.556  0.1677E+01  0.4698E+02
  20.566  0.1662E+01  0.4700E+02
  20.576  0.1647E+01  0.4701E+02
  20.586  0.1632E+01  0.4703E+02
  20.596  0.1617E+01  0.4705E+02
  20.606  0.1602E+01  0.4706E+02
  20.616  0.1586E+01  0.4708E+02
  20.626  0.1571E+01  0.4709E+02
  20.636  0.1556E+01  0.4711E+02
  20.646  0.1541E+01  0.4712E+02
  20.656  0.1526E+01  0.4714E+02
  20.666  0.1510E+01  0.4716E+02
  20.676  0.1495E+01  0.4717E+02
  20.686  0.1480E+01  0.4718E+02
  20.696  0.1466E+01  0.4720E+02
  20.706  0.1451E+01  0.4721E+02
  20.716  0.1436E+01  0.4723E+02
  20.726  0.1421E+01  0.4724E+02
  20.736  0.1407E+01  0.4726E+02
  20.746  0.1392E+01  0.4727E+02
  20.756  0.1378E+01  0.4728E+02
  20.766  0.1364E+01  0.4730E+02
  20.776  0.1350E+01  0.4731E+02
  20.786  0.1336E+01  0.4732E+02
  20.796  0.1322E+01  0.4734E+02
  20.806  0.1308E+01  0.4735E+02
  20.816  0.1295E+01  0.4736E+02
  20.826  0.1281E+01  0.4738E+02
  20.836  0.1268E+01  0.4739E+02
  20.846  0.1254E+01  0.4740E+02
  20.856  0.1241E+01  0.4741E+02
  20.866  0.1228E+01  0.4743E+02
  20.876  0.1215E+01  0.4744E+02
  20.886  0.1202E+01  0.4745E+02
  20.896  0.1189E+01  0.4746E+02
  20.906  0.1175E+01  0.4747E+02
  20.916  0.1162E+01  0.4749E+02
  20.926  0.1150E+01  0.4750E+02
  20.936  0.1137E+01  0.4751E+02
  20.946  0.1124E+01  0.4752E+02
  20.956  0.1111E+01  0.4753E+02
  20.966  0.1098E+01  0.4754E+02
  20.976  0.1084E+01  0.4755E+02
  20.986  0.1071E+01  0.4756E+02
  20.996  0.1058E+01  0.4757E+02
  21.006  0.1045E+01  0.4759E+02
  21.016  0.1032E+01  0.4760E+02
  21.026  0.1018E+01  0.4761E+02
  21.036  0.1005E+01  0.4762E+02
  21.046  0.9913E+00  0.4763E+02
  21.056  0.9777E+00  0.4764E+02
  21.066  0.9640E+00  0.4764E+02
  21.076  0.9501E+00  0.4765E+02
  21.086  0.9362E+00  0.4766E+02
  21.096  0.9221E+00  0.4767E+02
  21.106  0.9080E+00  0.4768E+02
  21.116  0.8937E+00  0.4769E+02
  21.126  0.8794E+00  0.4770E+02
  21.136  0.8649E+00  0.4771E+02
  21.146  0.8503E+00  0.4772E+02
  21.156  0.8357E+00  0.4773E+02
  21.166  0.8209E+00  0.4773E+02
  21.176  0.8061E+00  0.4774E+02
  21.186  0.7912E+00  0.4775E+02
  21.196  0.7762E+00  0.4776E+02
  21.206  0.7611E+00  0.4776E+02
  21.216  0.7460E+00  0.4777E+02
  21.226  0.7308E+00  0.4778E+02
  21.236  0.7156E+00  0.4779E+02
  21.246  0.7004E+00  0.4779E+02
  21.256  0.6851E+00  0.4780E+02
  21.266  0.6699E+00  0.4781E+02
  21.276  0.6546E+00  0.4781E+02
  21.286  0.6394E+00  0.4782E+02
  21.296  0.6242E+00  0.4783E+02
  21.306  0.6090E+00  0.4783E+02
  21.316  0.5939E+00  0.4784E+02
  21.326  0.5788E+00  0.4784E+02
  21.336  0.5639E+00  0.4785E+02
  21.346  0.5490E+00  0.4786E+02
  21.356  0.5342E+00  0.4786E+02
  21.366  0.5195E+00  0.4787E+02
  21.376  0.5049E+00  0.4787E+02
  21.386  0.4905E+00  0.4788E+02
  21.396  0.4762E+00  0.4788E+02
  21.406  0.4620E+00  0.4789E+02
  21.416  0.4480E+00  0.4789E+02
  21.426  0.4342E+00  0.4789E+02
  21.436  0.4206E+00  0.4790E+02
  21.446  0.4072E+00  0.4790E+02
  21.456  0.3939E+00  0.4791E+02
  21.466  0.3809E+00  0.4791E+02
  21.476  0.3681E+00  0.4791E+02
  21.486  0.3555E+00  0.4792E+02
  21.496  0.3432E+00  0.4792E+02
  21.506  0.3311E+00  0.4792E+02
  21.516  0.3192E+00  0.4793E+02
  21.526  0.3076E+00  0.4793E+02
  21.536  0.2962E+00  0.4793E+02
  21.546  0.2851E+00  0.4794E+02
  21.556  0.2742E+00  0.4794E+02
  21.566  0.2637E+00  0.4794E+02
  21.576  0.2533E+00  0.4794E+02
  21.586  0.2433E+00  0.4795E+02
  21.596  0.2335E+00  0.4795E+02
  21.606  0.2239E+00  0.4795E+02
  21.616  0.2147E+00  0.4795E+02
  21.626  0.2057E+00  0.4796E+02
  21.636  0.1970E+00  0.4796E+02
  21.646  0.1886E+00  0.4796E+02
  21.656  0.1804E+00  0.4796E+02
  21.666  0.1725E+00  0.4796E+02
  21.676  0.1648E+00  0.4796E+02
  21.686  0.1574E+00  0.4797E+02
  21.696  0.1503E+00  0.4797E+02
  21.706  0.1435E+00  0.4797E+02
  21.716  0.1368E+00  0.4797E+02
  21.726  0.1305E+00  0.4797E+02
  21.736  0.1244E+00  0.4797E+02
  21.746  0.1185E+00  0.4797E+02
  21.756  0.1128E+00  0.4798E+02
  21.766  0.1074E+00  0.4798E+02
  21.776  0.1023E+00  0.4798E+02
  21.786  0.9731E-01  0.4798E+02
  21.796  0.9257E-01  0.4798E+02
  21.806  0.8804E-01  0.4798E+02
  21.816  0.8372E-01  0.4798E+02
  21.826  0.7961E-01  0.4798E+02
  21.836  0.7569E-01  0.4798E+02
  21.846  0.7196E-01  0.4798E+02
  21.856  0.6841E-01  0.4798E+02
  21.866  0.6504E-01  0.4798E+02
  21.876  0.6184E-01  0.4799E+02
  21.886  0.5881E-01  0.4799E+02
  21.896  0.5594E-01  0.4799E+02
  21.906  0.5323E-01  0.4799E+02
  21.916  0.5066E-01  0.4799E+02
  21.926  0.4824E-01  0.4799E+02
  21.936  0.4595E-01  0.4799E+02
  21.946  0.4379E-01  0.4799E+02
  21.956  0.4176E-01  0.4799E+02
  21.966  0.3985E-01  0.4799E+02
  21.976  0.3805E-01  0.4799E+02
  21.986  0.3636E-01  0.4799E+02
  21.996  0.3477E-01  0.4799E+02
  22.006  0.3328E-01  0.4799E+02
  22.016  0.3188E-01  0.4799E+02
  22.026  0.3056E-01  0.4799E+02
  22.036  0.2933E-01  0.4799E+02
  22.046  0.2817E-01  0.4799E+02
  22.056  0.2709E-01  0.4799E+02
  22.066  0.2607E-01  0.4799E+02
  22.076  0.2512E-01  0.4799E+02
  22.086  0.2422E-01  0.4799E+02
  22.096  0.2338E-01  0.4799E+02
  22.106  0.2259E-01  0.4799E+02
  22.116  0.2185E-01  0.4799E+02
  22.126  0.2114E-01  0.4799E+02
  22.136  0.2048E-01  0.4799E+02
  22.146  0.1986E-01  0.4799E+02
  22.156  0.1927E-01  0.4799E+02
  22.166  0.1871E-01  0.4799E+02
  22.176  0.1817E-01  0.4800E+02
  22.186  0.1766E-01  0.4800E+02
  22.196  0.1718E-01  0.4800E+02
  22.206  0.1671E-01  0.4800E+02
  22.216  0.1626E-01  0.4800E+02
  22.226  0.1583E-01  0.4800E+02
  22.236  0.1542E-01  0.4800E+02
  22.246  0.1501E-01  0.4800E+02
  22.256  0.1462E-01  0.4800E+02
  22.266  0.1424E-01  0.4800E+02
  22.276  0.1386E-01  0.4800E+02
  22.286  0.1350E-01  0.4800E+02
  22.296  0.1314E-01  0.4800E+02
  22.306  0.1279E-01  0.4800E+02
  22.316  0.1244E-01  0.4800E+02
  22.326  0.1210E-01  0.4800E+02
  22.336  0.1176E-01  0.4800E+02
  22.346  0.1143E-01  0.4800E+02
  22.356  0.1110E-01  0.4800E+02
  22.366  0.1077E-01  0.4800E+02
  22.376  0.1045E-01  0.4800E+02
  22.386  0.1012E-01  0.4800E+02
  22.396  0.9807E-02  0.4800E+02
  22.406  0.9492E-02  0.4800E+02
  22.416  0.9180E-02  0.4800E+02
  22.426  0.8871E-02  0.4800E+02
  22.436  0.8566E-02  0.4800E+02
  22.446  0.8264E-02  0.4800E+02
  22.456  0.7965E-02  0.4800E+02
  22.466  0.7671E-02  0.4800E+02
  22.476  0.7380E-02  0.4800E+02
  22.486  0.7094E-02  0.4800E+02
  22.496  0.6812E-02  0.4800E+02
  22.506  0.6535E-02  0.4800E+02
  22.516  0.6263E-02  0.4800E+02
  22.526  0.5996E-02  0.4800E+02
  22.536  0.5735E-02  0.4800E+02
  22.546  0.5479E-02  0.4800E+02
  22.556  0.5229E-02  0.4800E+02
  22.566  0.4986E-02  0.4800E+02
  22.576  0.4748E-02  0.4800E+02
  22.586  0.4517E-02  0.4800E+02
  22.596  0.4293E-02  0.4800E+02
  22.606  0.4075E-02  0.4800E+02
  22.616  0.3864E-02  0.4800E+02
  22.626  0.3659E-02  0.4800E+02
  22.636  0.3462E-02  0.4800E+02
  22.646  0.3272E-02  0.4800E+02
  22.656  0.3088E-02  0.4800E+02
  22.666  0.2912E-02  0.4800E+02
  22.676  0.2742E-02  0.4800E+02
  22.686  0.2580E-02  0.4800E+02
  22.696  0.2424E-02  0.4800E+02
  22.706  0.2275E-02  0.4800E+02
  22.716  0.2133E-02  0.4800E+02
  22.726  0.1997E-02  0.4800E+02
  22.736  0.1868E-02  0.4800E+02
  22.746  0.1745E-02  0.4800E+02
  22.756  0.1628E-02  0.4800E+02
  22.766  0.1517E-02  0.4800E+02
  22.776  0.1413E-02  0.4800E+02
  22.786  0.1313E-02  0.4800E+02
  22.796  0.1220E-02  0.4800E+02
  22.806  0.1131E-02  0.4800E+02
  22.816  0.1048E-02  0.4800E+02
  22.826  0.9702E-03  0.4800E+02
  22.836  0.8968E-03  0.4800E+02
  22.846  0.8279E-03  0.4800E+02
  22.856  0.7635E-03  0.4800E+02
  22.866  0.7032E-03  0.4800E+02
  22.876  0.6469E-03  0.4800E+02
  22.886  0.5944E-03  0.4800E+02
  22.896  0.5455E-03  0.4800E+02
  22.906  0.5001E-03  0.4800E+02
  22.916  0.4579E-03  0.4800E+02
  22.926  0.4187E-03  0.4800E+02
  22.936  0.3825E-03  0.4800E+02
  22.946  0.3489E-03  0.4800E+02
  22.956  0.3179E-03  0.4800E+02
  22.966  0.2894E-03  0.4800E+02
  22.976  0.2631E-03  0.4800E+02
  22.986  0.2388E-03  0.4800E+02
  22.996  0.2166E-03  0.4800E+02
  23.006  0.1962E-03  0.4800E+02
  23.016  0.1775E-03  0.4800E+02
  23.026  0.1604E-03  0.4800E+02
  23.036  0.1448E-03  0.4800E+02
  23.046  0.1305E-03  0.4800E+02
  23.056  0.1175E-03  0.4800E+02
  23.066  0.1057E-03  0.4800E+02
  23.076  0.9492E-04  0.4800E+02
  23.086  0.8516E-04  0.4800E+02
  23.096  0.7631E-04  0.4800E+02
  23.106  0.6830E-04  0.4800E+02
  23.116  0.6106E-04  0.4800E+02
  23.126  0.5452E-04  0.4800E+02
  23.136  0.4862E-04  0.4800E+02
  23.146  0.4331E-04  0.4800E+02
  23.156  0.3853E-04  0.4800E+02
  23.166  0.3424E-04  0.4800E+02
  23.176  0.3039E-04  0.4800E+02
  23.186  0.2694E-04  0.4800E+02
  23.196  0.2385E-04  0.4800E+02
  23.206  0.2109E-04  0.4800E+02
  23.216  0.1863E-04  0.4800E+02
  23.226  0.1644E-04  0.4800E+02
  23.236  0.1448E-04  0.4800E+02
  23.246  0.1275E-04  0.4800E+02
  23.256  0.1121E-04  0.4800E+02
  23.266  0.9839E-05  0.4800E+02
  23.276  0.8628E-05  0.4800E+02
  23.286  0.7557E-05  0.4800E+02
  23.296  0.6611E-05  0.4800E+02
  23.306  0.5777E-05  0.4800E+02
  23.316  0.5042E-05  0.4800E+02
  23.326  0.4395E-05  0.4800E+02
  23.336  0.3827E-05  0.4800E+02
  23.346  0.3328E-05  0.4800E+02
  23.356  0.2890E-05  0.4800E+02
  23.366  0.2508E-05  0.4800E+02
  23.376  0.2173E-05  0.4800E+02
  23.386  0.1880E-05  0.4800E+02
  23.396  0.1626E-05  0.4800E+02
