#  E (eV)   dos(E)     Int dos(E) EFermi =    7.984 eV
 -17.115  0.4121E-03  0.4121E-05
 -17.105  0.4363E-03  0.8484E-05
 -17.095  0.4619E-03  0.1310E-04
 -17.085  0.4889E-03  0.1799E-04
 -17.075  0.5174E-03  0.2317E-04
 -17.065  0.5475E-03  0.2864E-04
 -17.055  0.5792E-03  0.3443E-04
 -17.045  0.6127E-03  0.4056E-04
 -17.035  0.6480E-03  0.4704E-04
 -17.025  0.6852E-03  0.5389E-04
 -17.015  0.7244E-03  0.6114E-04
 -17.005  0.7658E-03  0.6879E-04
 -16.995  0.8094E-03  0.7689E-04
 -16.985  0.8553E-03  0.8544E-04
 -16.975  0.9037E-03  0.9448E-04
 -16.965  0.9546E-03  0.1040E-03
 -16.955  0.1008E-02  0.1141E-03
 -16.945  0.1065E-02  0.1248E-03
 -16.935  0.1124E-02  0.1360E-03
 -16.925  0.1187E-02  0.1479E-03
 -16.915  0.1253E-02  0.1604E-03
 -16.905  0.1322E-02  0.1736E-03
 -16.895  0.1395E-02  0.1876E-03
 -16.885  0.1472E-02  0.2023E-03
 -16.875  0.1553E-02  0.2178E-03
 -16.865  0.1638E-02  0.2342E-03
 -16.855  0.1727E-02  0.2515E-03
 -16.845  0.1821E-02  0.2697E-03
 -16.835  0.1919E-02  0.2889E-03
 -16.825  0.2023E-02  0.3091E-03
 -16.815  0.2132E-02  0.3304E-03
 -16.805  0.2246E-02  0.3529E-03
 -16.795  0.2366E-02  0.3765E-03
 -16.785  0.2492E-02  0.4015E-03
 -16.775  0.2625E-02  0.4277E-03
 -16.765  0.2764E-02  0.4553E-03
 -16.755  0.2909E-02  0.4844E-03
 -16.745  0.3063E-02  0.5151E-03
 -16.735  0.3223E-02  0.5473E-03
 -16.725  0.3392E-02  0.5812E-03
 -16.715  0.3568E-02  0.6169E-03
 -16.705  0.3753E-02  0.6544E-03
 -16.695  0.3948E-02  0.6939E-03
 -16.685  0.4151E-02  0.7354E-03
 -16.675  0.4365E-02  0.7791E-03
 -16.665  0.4588E-02  0.8249E-03
 -16.655  0.4823E-02  0.8732E-03
 -16.645  0.5068E-02  0.9238E-03
 -16.635  0.5325E-02  0.9771E-03
 -16.625  0.5594E-02  0.1033E-02
 -16.615  0.5876E-02  0.1092E-02
 -16.605  0.6171E-02  0.1154E-02
 -16.595  0.6480E-02  0.1218E-02
 -16.585  0.6803E-02  0.1286E-02
 -16.575  0.7141E-02  0.1358E-02
 -16.565  0.7495E-02  0.1433E-02
 -16.555  0.7865E-02  0.1511E-02
 -16.545  0.8252E-02  0.1594E-02
 -16.535  0.8656E-02  0.1680E-02
 -16.525  0.9079E-02  0.1771E-02
 -16.515  0.9521E-02  0.1866E-02
 -16.505  0.9982E-02  0.1966E-02
 -16.495  0.1046E-01  0.2071E-02
 -16.485  0.1097E-01  0.2181E-02
 -16.475  0.1149E-01  0.2296E-02
 -16.465  0.1204E-01  0.2416E-02
 -16.455  0.1262E-01  0.2542E-02
 -16.445  0.1322E-01  0.2674E-02
 -16.435  0.1384E-01  0.2813E-02
 -16.425  0.1450E-01  0.2958E-02
 -16.415  0.1518E-01  0.3109E-02
 -16.405  0.1589E-01  0.3268E-02
 -16.395  0.1663E-01  0.3435E-02
 -16.385  0.1740E-01  0.3609E-02
 -16.375  0.1820E-01  0.3791E-02
 -16.365  0.1904E-01  0.3981E-02
 -16.355  0.1992E-01  0.4180E-02
 -16.345  0.2083E-01  0.4389E-02
 -16.335  0.2178E-01  0.4606E-02
 -16.325  0.2277E-01  0.4834E-02
 -16.315  0.2380E-01  0.5072E-02
 -16.305  0.2487E-01  0.5321E-02
 -16.295  0.2599E-01  0.5581E-02
 -16.285  0.2715E-01  0.5852E-02
 -16.275  0.2836E-01  0.6136E-02
 -16.265  0.2962E-01  0.6432E-02
 -16.255  0.3094E-01  0.6741E-02
 -16.245  0.3230E-01  0.7064E-02
 -16.235  0.3372E-01  0.7402E-02
 -16.225  0.3519E-01  0.7754E-02
 -16.215  0.3672E-01  0.8121E-02
 -16.205  0.3832E-01  0.8504E-02
 -16.195  0.3997E-01  0.8904E-02
 -16.185  0.4170E-01  0.9321E-02
 -16.175  0.4348E-01  0.9756E-02
 -16.165  0.4534E-01  0.1021E-01
 -16.155  0.4727E-01  0.1068E-01
 -16.145  0.4927E-01  0.1117E-01
 -16.135  0.5135E-01  0.1169E-01
 -16.125  0.5351E-01  0.1222E-01
 -16.115  0.5575E-01  0.1278E-01
 -16.105  0.5808E-01  0.1336E-01
 -16.095  0.6049E-01  0.1397E-01
 -16.085  0.6299E-01  0.1460E-01
 -16.075  0.6559E-01  0.1525E-01
 -16.065  0.6828E-01  0.1593E-01
 -16.055  0.7107E-01  0.1665E-01
 -16.045  0.7396E-01  0.1739E-01
 -16.035  0.7696E-01  0.1815E-01
 -16.025  0.8006E-01  0.1896E-01
 -16.015  0.8328E-01  0.1979E-01
 -16.005  0.8661E-01  0.2065E-01
 -15.995  0.9007E-01  0.2156E-01
 -15.985  0.9364E-01  0.2249E-01
 -15.975  0.9734E-01  0.2346E-01
 -15.965  0.1012E+00  0.2448E-01
 -15.955  0.1051E+00  0.2553E-01
 -15.945  0.1092E+00  0.2662E-01
 -15.935  0.1135E+00  0.2775E-01
 -15.925  0.1179E+00  0.2893E-01
 -15.915  0.1224E+00  0.3016E-01
 -15.905  0.1271E+00  0.3143E-01
 -15.895  0.1319E+00  0.3275E-01
 -15.885  0.1370E+00  0.3412E-01
 -15.875  0.1421E+00  0.3554E-01
 -15.865  0.1475E+00  0.3701E-01
 -15.855  0.1530E+00  0.3854E-01
 -15.845  0.1587E+00  0.4013E-01
 -15.835  0.1646E+00  0.4178E-01
 -15.825  0.1707E+00  0.4348E-01
 -15.815  0.1770E+00  0.4525E-01
 -15.805  0.1835E+00  0.4709E-01
 -15.795  0.1902E+00  0.4899E-01
 -15.785  0.1971E+00  0.5096E-01
 -15.775  0.2042E+00  0.5300E-01
 -15.765  0.2116E+00  0.5512E-01
 -15.755  0.2191E+00  0.5731E-01
 -15.745  0.2270E+00  0.5958E-01
 -15.735  0.2350E+00  0.6193E-01
 -15.725  0.2433E+00  0.6436E-01
 -15.715  0.2519E+00  0.6688E-01
 -15.705  0.2607E+00  0.6949E-01
 -15.695  0.2697E+00  0.7219E-01
 -15.685  0.2791E+00  0.7498E-01
 -15.675  0.2887E+00  0.7787E-01
 -15.665  0.2986E+00  0.8085E-01
 -15.655  0.3088E+00  0.8394E-01
 -15.645  0.3193E+00  0.8713E-01
 -15.635  0.3301E+00  0.9043E-01
 -15.625  0.3412E+00  0.9385E-01
 -15.615  0.3526E+00  0.9737E-01
 -15.605  0.3644E+00  0.1010E+00
 -15.595  0.3764E+00  0.1048E+00
 -15.585  0.3889E+00  0.1087E+00
 -15.575  0.4016E+00  0.1127E+00
 -15.565  0.4147E+00  0.1168E+00
 -15.555  0.4282E+00  0.1211E+00
 -15.545  0.4420E+00  0.1255E+00
 -15.535  0.4562E+00  0.1301E+00
 -15.525  0.4708E+00  0.1348E+00
 -15.515  0.4858E+00  0.1397E+00
 -15.505  0.5012E+00  0.1447E+00
 -15.495  0.5169E+00  0.1498E+00
 -15.485  0.5331E+00  0.1552E+00
 -15.475  0.5497E+00  0.1607E+00
 -15.465  0.5668E+00  0.1663E+00
 -15.455  0.5842E+00  0.1722E+00
 -15.445  0.6021E+00  0.1782E+00
 -15.435  0.6205E+00  0.1844E+00
 -15.425  0.6393E+00  0.1908E+00
 -15.415  0.6586E+00  0.1974E+00
 -15.405  0.6783E+00  0.2042E+00
 -15.395  0.6985E+00  0.2112E+00
 -15.385  0.7192E+00  0.2183E+00
 -15.375  0.7404E+00  0.2258E+00
 -15.365  0.7621E+00  0.2334E+00
 -15.355  0.7843E+00  0.2412E+00
 -15.345  0.8071E+00  0.2493E+00
 -15.335  0.8303E+00  0.2576E+00
 -15.325  0.8541E+00  0.2661E+00
 -15.315  0.8785E+00  0.2749E+00
 -15.305  0.9033E+00  0.2840E+00
 -15.295  0.9288E+00  0.2932E+00
 -15.285  0.9548E+00  0.3028E+00
 -15.275  0.9813E+00  0.3126E+00
 -15.265  0.1008E+01  0.3227E+00
 -15.255  0.1036E+01  0.3330E+00
 -15.245  0.1064E+01  0.3437E+00
 -15.235  0.1093E+01  0.3546E+00
 -15.225  0.1123E+01  0.3659E+00
 -15.215  0.1153E+01  0.3774E+00
 -15.205  0.1184E+01  0.3892E+00
 -15.195  0.1215E+01  0.4014E+00
 -15.185  0.1247E+01  0.4138E+00
 -15.175  0.1280E+01  0.4266E+00
 -15.165  0.1313E+01  0.4398E+00
 -15.155  0.1347E+01  0.4532E+00
 -15.145  0.1382E+01  0.4671E+00
 -15.135  0.1417E+01  0.4812E+00
 -15.125  0.1453E+01  0.4958E+00
 -15.115  0.1489E+01  0.5106E+00
 -15.105  0.1527E+01  0.5259E+00
 -15.095  0.1565E+01  0.5416E+00
 -15.085  0.1603E+01  0.5576E+00
 -15.075  0.1642E+01  0.5740E+00
 -15.065  0.1682E+01  0.5908E+00
 -15.055  0.1723E+01  0.6081E+00
 -15.045  0.1765E+01  0.6257E+00
 -15.035  0.1807E+01  0.6438E+00
 -15.025  0.1849E+01  0.6623E+00
 -15.015  0.1893E+01  0.6812E+00
 -15.005  0.1937E+01  0.7006E+00
 -14.995  0.1982E+01  0.7204E+00
 -14.985  0.2028E+01  0.7407E+00
 -14.975  0.2074E+01  0.7614E+00
 -14.965  0.2121E+01  0.7826E+00
 -14.955  0.2169E+01  0.8043E+00
 -14.945  0.2218E+01  0.8265E+00
 -14.935  0.2267E+01  0.8492E+00
 -14.925  0.2317E+01  0.8723E+00
 -14.915  0.2368E+01  0.8960E+00
 -14.905  0.2419E+01  0.9202E+00
 -14.895  0.2471E+01  0.9449E+00
 -14.885  0.2524E+01  0.9702E+00
 -14.875  0.2578E+01  0.9959E+00
 -14.865  0.2632E+01  0.1022E+01
 -14.855  0.2687E+01  0.1049E+01
 -14.845  0.2743E+01  0.1077E+01
 -14.835  0.2799E+01  0.1105E+01
 -14.825  0.2856E+01  0.1133E+01
 -14.815  0.2914E+01  0.1162E+01
 -14.805  0.2973E+01  0.1192E+01
 -14.795  0.3032E+01  0.1222E+01
 -14.785  0.3092E+01  0.1253E+01
 -14.775  0.3152E+01  0.1285E+01
 -14.765  0.3213E+01  0.1317E+01
 -14.755  0.3275E+01  0.1350E+01
 -14.745  0.3338E+01  0.1383E+01
 -14.735  0.3401E+01  0.1417E+01
 -14.725  0.3465E+01  0.1452E+01
 -14.715  0.3529E+01  0.1487E+01
 -14.705  0.3595E+01  0.1523E+01
 -14.695  0.3660E+01  0.1559E+01
 -14.685  0.3727E+01  0.1597E+01
 -14.675  0.3794E+01  0.1635E+01
 -14.665  0.3861E+01  0.1673E+01
 -14.655  0.3929E+01  0.1713E+01
 -14.645  0.3998E+01  0.1753E+01
 -14.635  0.4067E+01  0.1793E+01
 -14.625  0.4137E+01  0.1835E+01
 -14.615  0.4207E+01  0.1877E+01
 -14.605  0.4278E+01  0.1919E+01
 -14.595  0.4349E+01  0.1963E+01
 -14.585  0.4421E+01  0.2007E+01
 -14.575  0.4493E+01  0.2052E+01
 -14.565  0.4565E+01  0.2098E+01
 -14.555  0.4638E+01  0.2144E+01
 -14.545  0.4712E+01  0.2191E+01
 -14.535  0.4786E+01  0.2239E+01
 -14.525  0.4860E+01  0.2288E+01
 -14.515  0.4934E+01  0.2337E+01
 -14.505  0.5009E+01  0.2387E+01
 -14.495  0.5085E+01  0.2438E+01
 -14.485  0.5160E+01  0.2490E+01
 -14.475  0.5236E+01  0.2542E+01
 -14.465  0.5312E+01  0.2595E+01
 -14.455  0.5388E+01  0.2649E+01
 -14.445  0.5465E+01  0.2704E+01
 -14.435  0.5542E+01  0.2759E+01
 -14.425  0.5619E+01  0.2815E+01
 -14.415  0.5696E+01  0.2872E+01
 -14.405  0.5773E+01  0.2930E+01
 -14.395  0.5850E+01  0.2988E+01
 -14.385  0.5928E+01  0.3048E+01
 -14.375  0.6005E+01  0.3108E+01
 -14.365  0.6083E+01  0.3169E+01
 -14.355  0.6160E+01  0.3230E+01
 -14.345  0.6238E+01  0.3293E+01
 -14.335  0.6315E+01  0.3356E+01
 -14.325  0.6393E+01  0.3420E+01
 -14.315  0.6470E+01  0.3484E+01
 -14.305  0.6547E+01  0.3550E+01
 -14.295  0.6624E+01  0.3616E+01
 -14.285  0.6701E+01  0.3683E+01
 -14.275  0.6778E+01  0.3751E+01
 -14.265  0.6854E+01  0.3819E+01
 -14.255  0.6931E+01  0.3889E+01
 -14.245  0.7007E+01  0.3959E+01
 -14.235  0.7082E+01  0.4030E+01
 -14.225  0.7158E+01  0.4101E+01
 -14.215  0.7233E+01  0.4173E+01
 -14.205  0.7307E+01  0.4247E+01
 -14.195  0.7381E+01  0.4320E+01
 -14.185  0.7455E+01  0.4395E+01
 -14.175  0.7528E+01  0.4470E+01
 -14.165  0.7601E+01  0.4546E+01
 -14.155  0.7673E+01  0.4623E+01
 -14.145  0.7745E+01  0.4700E+01
 -14.135  0.7816E+01  0.4779E+01
 -14.125  0.7887E+01  0.4857E+01
 -14.115  0.7957E+01  0.4937E+01
 -14.105  0.8026E+01  0.5017E+01
 -14.095  0.8094E+01  0.5098E+01
 -14.085  0.8162E+01  0.5180E+01
 -14.075  0.8229E+01  0.5262E+01
 -14.065  0.8295E+01  0.5345E+01
 -14.055  0.8361E+01  0.5429E+01
 -14.045  0.8426E+01  0.5513E+01
 -14.035  0.8489E+01  0.5598E+01
 -14.025  0.8552E+01  0.5683E+01
 -14.015  0.8614E+01  0.5769E+01
 -14.005  0.8675E+01  0.5856E+01
 -13.995  0.8735E+01  0.5944E+01
 -13.985  0.8794E+01  0.6031E+01
 -13.975  0.8852E+01  0.6120E+01
 -13.965  0.8909E+01  0.6209E+01
 -13.955  0.8965E+01  0.6299E+01
 -13.945  0.9020E+01  0.6389E+01
 -13.935  0.9074E+01  0.6480E+01
 -13.925  0.9126E+01  0.6571E+01
 -13.915  0.9178E+01  0.6663E+01
 -13.905  0.9228E+01  0.6755E+01
 -13.895  0.9277E+01  0.6848E+01
 -13.885  0.9325E+01  0.6941E+01
 -13.875  0.9371E+01  0.7035E+01
 -13.865  0.9417E+01  0.7129E+01
 -13.855  0.9461E+01  0.7224E+01
 -13.845  0.9503E+01  0.7319E+01
 -13.835  0.9545E+01  0.7414E+01
 -13.825  0.9584E+01  0.7510E+01
 -13.815  0.9623E+01  0.7606E+01
 -13.805  0.9660E+01  0.7703E+01
 -13.795  0.9696E+01  0.7800E+01
 -13.785  0.9730E+01  0.7897E+01
 -13.775  0.9763E+01  0.7995E+01
 -13.765  0.9795E+01  0.8093E+01
 -13.755  0.9825E+01  0.8191E+01
 -13.745  0.9853E+01  0.8289E+01
 -13.735  0.9880E+01  0.8388E+01
 -13.725  0.9906E+01  0.8487E+01
 -13.715  0.9930E+01  0.8586E+01
 -13.705  0.9952E+01  0.8686E+01
 -13.695  0.9973E+01  0.8786E+01
 -13.685  0.9992E+01  0.8886E+01
 -13.675  0.1001E+02  0.8986E+01
 -13.665  0.1003E+02  0.9086E+01
 -13.655  0.1004E+02  0.9186E+01
 -13.645  0.1005E+02  0.9287E+01
 -13.635  0.1007E+02  0.9388E+01
 -13.625  0.1008E+02  0.9488E+01
 -13.615  0.1008E+02  0.9589E+01
 -13.605  0.1009E+02  0.9690E+01
 -13.595  0.1009E+02  0.9791E+01
 -13.585  0.1010E+02  0.9892E+01
 -13.575  0.1010E+02  0.9993E+01
 -13.565  0.1010E+02  0.1009E+02
 -13.555  0.1010E+02  0.1020E+02
 -13.545  0.1010E+02  0.1030E+02
 -13.535  0.1009E+02  0.1040E+02
 -13.525  0.1008E+02  0.1050E+02
 -13.515  0.1008E+02  0.1060E+02
 -13.505  0.1007E+02  0.1070E+02
 -13.495  0.1006E+02  0.1080E+02
 -13.485  0.1004E+02  0.1090E+02
 -13.475  0.1003E+02  0.1100E+02
 -13.465  0.1001E+02  0.1110E+02
 -13.455  0.9996E+01  0.1120E+02
 -13.445  0.9977E+01  0.1130E+02
 -13.435  0.9956E+01  0.1140E+02
 -13.425  0.9934E+01  0.1150E+02
 -13.415  0.9910E+01  0.1160E+02
 -13.405  0.9885E+01  0.1170E+02
 -13.395  0.9858E+01  0.1180E+02
 -13.385  0.9830E+01  0.1189E+02
 -13.375  0.9800E+01  0.1199E+02
 -13.365  0.9769E+01  0.1209E+02
 -13.355  0.9736E+01  0.1219E+02
 -13.345  0.9702E+01  0.1228E+02
 -13.335  0.9667E+01  0.1238E+02
 -13.325  0.9630E+01  0.1248E+02
 -13.315  0.9592E+01  0.1257E+02
 -13.305  0.9552E+01  0.1267E+02
 -13.295  0.9511E+01  0.1276E+02
 -13.285  0.9468E+01  0.1286E+02
 -13.275  0.9425E+01  0.1295E+02
 -13.265  0.9380E+01  0.1305E+02
 -13.255  0.9333E+01  0.1314E+02
 -13.245  0.9286E+01  0.1323E+02
 -13.235  0.9237E+01  0.1332E+02
 -13.225  0.9187E+01  0.1342E+02
 -13.215  0.9136E+01  0.1351E+02
 -13.205  0.9083E+01  0.1360E+02
 -13.195  0.9030E+01  0.1369E+02
 -13.185  0.8975E+01  0.1378E+02
 -13.175  0.8919E+01  0.1387E+02
 -13.165  0.8862E+01  0.1396E+02
 -13.155  0.8805E+01  0.1404E+02
 -13.145  0.8746E+01  0.1413E+02
 -13.135  0.8686E+01  0.1422E+02
 -13.125  0.8625E+01  0.1431E+02
 -13.115  0.8563E+01  0.1439E+02
 -13.105  0.8500E+01  0.1448E+02
 -13.095  0.8437E+01  0.1456E+02
 -13.085  0.8372E+01  0.1464E+02
 -13.075  0.8307E+01  0.1473E+02
 -13.065  0.8241E+01  0.1481E+02
 -13.055  0.8174E+01  0.1489E+02
 -13.045  0.8106E+01  0.1497E+02
 -13.035  0.8038E+01  0.1505E+02
 -13.025  0.7968E+01  0.1513E+02
 -13.015  0.7899E+01  0.1521E+02
 -13.005  0.7828E+01  0.1529E+02
 -12.995  0.7757E+01  0.1537E+02
 -12.985  0.7686E+01  0.1544E+02
 -12.975  0.7613E+01  0.1552E+02
 -12.965  0.7541E+01  0.1560E+02
 -12.955  0.7467E+01  0.1567E+02
 -12.945  0.7394E+01  0.1574E+02
 -12.935  0.7320E+01  0.1582E+02
 -12.925  0.7245E+01  0.1589E+02
 -12.915  0.7170E+01  0.1596E+02
 -12.905  0.7095E+01  0.1603E+02
 -12.895  0.7019E+01  0.1610E+02
 -12.885  0.6943E+01  0.1617E+02
 -12.875  0.6867E+01  0.1624E+02
 -12.865  0.6790E+01  0.1631E+02
 -12.855  0.6714E+01  0.1638E+02
 -12.845  0.6637E+01  0.1644E+02
 -12.835  0.6560E+01  0.1651E+02
 -12.825  0.6482E+01  0.1657E+02
 -12.815  0.6405E+01  0.1664E+02
 -12.805  0.6328E+01  0.1670E+02
 -12.795  0.6250E+01  0.1676E+02
 -12.785  0.6172E+01  0.1682E+02
 -12.775  0.6095E+01  0.1689E+02
 -12.765  0.6017E+01  0.1695E+02
 -12.755  0.5940E+01  0.1700E+02
 -12.745  0.5862E+01  0.1706E+02
 -12.735  0.5785E+01  0.1712E+02
 -12.725  0.5708E+01  0.1718E+02
 -12.715  0.5631E+01  0.1723E+02
 -12.705  0.5554E+01  0.1729E+02
 -12.695  0.5477E+01  0.1734E+02
 -12.685  0.5400E+01  0.1740E+02
 -12.675  0.5324E+01  0.1745E+02
 -12.665  0.5247E+01  0.1750E+02
 -12.655  0.5172E+01  0.1756E+02
 -12.645  0.5096E+01  0.1761E+02
 -12.635  0.5021E+01  0.1766E+02
 -12.625  0.4945E+01  0.1771E+02
 -12.615  0.4871E+01  0.1776E+02
 -12.605  0.4796E+01  0.1780E+02
 -12.595  0.4723E+01  0.1785E+02
 -12.585  0.4649E+01  0.1790E+02
 -12.575  0.4576E+01  0.1794E+02
 -12.565  0.4503E+01  0.1799E+02
 -12.555  0.4431E+01  0.1803E+02
 -12.545  0.4359E+01  0.1808E+02
 -12.535  0.4288E+01  0.1812E+02
 -12.525  0.4217E+01  0.1816E+02
 -12.515  0.4146E+01  0.1820E+02
 -12.505  0.4077E+01  0.1824E+02
 -12.495  0.4007E+01  0.1828E+02
 -12.485  0.3939E+01  0.1832E+02
 -12.475  0.3870E+01  0.1836E+02
 -12.465  0.3803E+01  0.1840E+02
 -12.455  0.3736E+01  0.1844E+02
 -12.445  0.3669E+01  0.1847E+02
 -12.435  0.3603E+01  0.1851E+02
 -12.425  0.3538E+01  0.1855E+02
 -12.415  0.3474E+01  0.1858E+02
 -12.405  0.3410E+01  0.1861E+02
 -12.395  0.3346E+01  0.1865E+02
 -12.385  0.3283E+01  0.1868E+02
 -12.375  0.3221E+01  0.1871E+02
 -12.365  0.3160E+01  0.1874E+02
 -12.355  0.3099E+01  0.1877E+02
 -12.345  0.3039E+01  0.1881E+02
 -12.335  0.2980E+01  0.1884E+02
 -12.325  0.2921E+01  0.1886E+02
 -12.315  0.2863E+01  0.1889E+02
 -12.305  0.2806E+01  0.1892E+02
 -12.295  0.2750E+01  0.1895E+02
 -12.285  0.2694E+01  0.1898E+02
 -12.275  0.2639E+01  0.1900E+02
 -12.265  0.2584E+01  0.1903E+02
 -12.255  0.2530E+01  0.1905E+02
 -12.245  0.2477E+01  0.1908E+02
 -12.235  0.2425E+01  0.1910E+02
 -12.225  0.2374E+01  0.1913E+02
 -12.215  0.2323E+01  0.1915E+02
 -12.205  0.2273E+01  0.1917E+02
 -12.195  0.2223E+01  0.1919E+02
 -12.185  0.2174E+01  0.1922E+02
 -12.175  0.2127E+01  0.1924E+02
 -12.165  0.2079E+01  0.1926E+02
 -12.155  0.2033E+01  0.1928E+02
 -12.145  0.1987E+01  0.1930E+02
 -12.135  0.1942E+01  0.1932E+02
 -12.125  0.1898E+01  0.1934E+02
 -12.115  0.1854E+01  0.1935E+02
 -12.105  0.1811E+01  0.1937E+02
 -12.095  0.1769E+01  0.1939E+02
 -12.085  0.1727E+01  0.1941E+02
 -12.075  0.1687E+01  0.1942E+02
 -12.065  0.1646E+01  0.1944E+02
 -12.055  0.1607E+01  0.1946E+02
 -12.045  0.1568E+01  0.1947E+02
 -12.035  0.1530E+01  0.1949E+02
 -12.025  0.1493E+01  0.1950E+02
 -12.015  0.1456E+01  0.1952E+02
 -12.005  0.1420E+01  0.1953E+02
 -11.995  0.1385E+01  0.1955E+02
 -11.985  0.1350E+01  0.1956E+02
 -11.975  0.1316E+01  0.1957E+02
 -11.965  0.1283E+01  0.1959E+02
 -11.955  0.1250E+01  0.1960E+02
 -11.945  0.1218E+01  0.1961E+02
 -11.935  0.1186E+01  0.1962E+02
 -11.925  0.1156E+01  0.1963E+02
 -11.915  0.1125E+01  0.1964E+02
 -11.905  0.1096E+01  0.1966E+02
 -11.895  0.1067E+01  0.1967E+02
 -11.885  0.1038E+01  0.1968E+02
 -11.875  0.1011E+01  0.1969E+02
 -11.865  0.9834E+00  0.1970E+02
 -11.855  0.9568E+00  0.1971E+02
 -11.845  0.9307E+00  0.1972E+02
 -11.835  0.9052E+00  0.1972E+02
 -11.825  0.8803E+00  0.1973E+02
 -11.815  0.8559E+00  0.1974E+02
 -11.805  0.8320E+00  0.1975E+02
 -11.795  0.8087E+00  0.1976E+02
 -11.785  0.7859E+00  0.1977E+02
 -11.775  0.7636E+00  0.1977E+02
 -11.765  0.7419E+00  0.1978E+02
 -11.755  0.7206E+00  0.1979E+02
 -11.745  0.6999E+00  0.1980E+02
 -11.735  0.6796E+00  0.1980E+02
 -11.725  0.6598E+00  0.1981E+02
 -11.715  0.6405E+00  0.1982E+02
 -11.705  0.6216E+00  0.1982E+02
 -11.695  0.6032E+00  0.1983E+02
 -11.685  0.5853E+00  0.1983E+02
 -11.675  0.5677E+00  0.1984E+02
 -11.665  0.5507E+00  0.1984E+02
 -11.655  0.5340E+00  0.1985E+02
 -11.645  0.5178E+00  0.1986E+02
 -11.635  0.5020E+00  0.1986E+02
 -11.625  0.4866E+00  0.1986E+02
 -11.615  0.4716E+00  0.1987E+02
 -11.605  0.4569E+00  0.1987E+02
 -11.595  0.4427E+00  0.1988E+02
 -11.585  0.4288E+00  0.1988E+02
 -11.575  0.4153E+00  0.1989E+02
 -11.565  0.4022E+00  0.1989E+02
 -11.555  0.3894E+00  0.1990E+02
 -11.545  0.3770E+00  0.1990E+02
 -11.535  0.3649E+00  0.1990E+02
 -11.525  0.3531E+00  0.1991E+02
 -11.515  0.3416E+00  0.1991E+02
 -11.505  0.3305E+00  0.1991E+02
 -11.495  0.3197E+00  0.1992E+02
 -11.485  0.3092E+00  0.1992E+02
 -11.475  0.2989E+00  0.1992E+02
 -11.465  0.2890E+00  0.1992E+02
 -11.455  0.2794E+00  0.1993E+02
 -11.445  0.2700E+00  0.1993E+02
 -11.435  0.2609E+00  0.1993E+02
 -11.425  0.2521E+00  0.1994E+02
 -11.415  0.2435E+00  0.1994E+02
 -11.405  0.2352E+00  0.1994E+02
 -11.395  0.2271E+00  0.1994E+02
 -11.385  0.2193E+00  0.1994E+02
 -11.375  0.2117E+00  0.1995E+02
 -11.365  0.2044E+00  0.1995E+02
 -11.355  0.1972E+00  0.1995E+02
 -11.345  0.1903E+00  0.1995E+02
 -11.335  0.1836E+00  0.1995E+02
 -11.325  0.1771E+00  0.1996E+02
 -11.315  0.1708E+00  0.1996E+02
 -11.305  0.1647E+00  0.1996E+02
 -11.295  0.1588E+00  0.1996E+02
 -11.285  0.1531E+00  0.1996E+02
 -11.275  0.1475E+00  0.1996E+02
 -11.265  0.1422E+00  0.1997E+02
 -11.255  0.1370E+00  0.1997E+02
 -11.245  0.1320E+00  0.1997E+02
 -11.235  0.1271E+00  0.1997E+02
 -11.225  0.1224E+00  0.1997E+02
 -11.215  0.1179E+00  0.1997E+02
 -11.205  0.1135E+00  0.1997E+02
 -11.195  0.1092E+00  0.1997E+02
 -11.185  0.1051E+00  0.1998E+02
 -11.175  0.1011E+00  0.1998E+02
 -11.165  0.9731E-01  0.1998E+02
 -11.155  0.9361E-01  0.1998E+02
 -11.145  0.9003E-01  0.1998E+02
 -11.135  0.8658E-01  0.1998E+02
 -11.125  0.8324E-01  0.1998E+02
 -11.115  0.8002E-01  0.1998E+02
 -11.105  0.7691E-01  0.1998E+02
 -11.095  0.7391E-01  0.1998E+02
 -11.085  0.7102E-01  0.1998E+02
 -11.075  0.6823E-01  0.1998E+02
 -11.065  0.6553E-01  0.1999E+02
 -11.055  0.6294E-01  0.1999E+02
 -11.045  0.6043E-01  0.1999E+02
 -11.035  0.5802E-01  0.1999E+02
 -11.025  0.5569E-01  0.1999E+02
 -11.015  0.5345E-01  0.1999E+02
 -11.005  0.5129E-01  0.1999E+02
 -10.995  0.4921E-01  0.1999E+02
 -10.985  0.4721E-01  0.1999E+02
 -10.975  0.4528E-01  0.1999E+02
 -10.965  0.4342E-01  0.1999E+02
 -10.955  0.4163E-01  0.1999E+02
 -10.945  0.3991E-01  0.1999E+02
 -10.935  0.3826E-01  0.1999E+02
 -10.925  0.3666E-01  0.1999E+02
 -10.915  0.3513E-01  0.1999E+02
 -10.905  0.3366E-01  0.1999E+02
 -10.895  0.3224E-01  0.1999E+02
 -10.885  0.3087E-01  0.1999E+02
 -10.875  0.2956E-01  0.1999E+02
 -10.865  0.2831E-01  0.1999E+02
 -10.855  0.2710E-01  0.1999E+02
 -10.845  0.2593E-01  0.1999E+02
 -10.835  0.2482E-01  0.1999E+02
 -10.825  0.2374E-01  0.2000E+02
 -10.815  0.2271E-01  0.2000E+02
 -10.805  0.2173E-01  0.2000E+02
 -10.795  0.2078E-01  0.2000E+02
 -10.785  0.1987E-01  0.2000E+02
 -10.775  0.1899E-01  0.2000E+02
 -10.765  0.1815E-01  0.2000E+02
 -10.755  0.1735E-01  0.2000E+02
 -10.745  0.1658E-01  0.2000E+02
 -10.735  0.1584E-01  0.2000E+02
 -10.725  0.1513E-01  0.2000E+02
 -10.715  0.1445E-01  0.2000E+02
 -10.705  0.1380E-01  0.2000E+02
 -10.695  0.1317E-01  0.2000E+02
 -10.685  0.1258E-01  0.2000E+02
 -10.675  0.1200E-01  0.2000E+02
 -10.665  0.1145E-01  0.2000E+02
 -10.655  0.1093E-01  0.2000E+02
 -10.645  0.1043E-01  0.2000E+02
 -10.635  0.9944E-02  0.2000E+02
 -10.625  0.9484E-02  0.2000E+02
 -10.615  0.9043E-02  0.2000E+02
 -10.605  0.8621E-02  0.2000E+02
 -10.595  0.8218E-02  0.2000E+02
 -10.585  0.7832E-02  0.2000E+02
 -10.575  0.7463E-02  0.2000E+02
 -10.565  0.7110E-02  0.2000E+02
 -10.555  0.6773E-02  0.2000E+02
 -10.545  0.6451E-02  0.2000E+02
 -10.535  0.6143E-02  0.2000E+02
 -10.525  0.5849E-02  0.2000E+02
 -10.515  0.5568E-02  0.2000E+02
 -10.505  0.5299E-02  0.2000E+02
 -10.495  0.5043E-02  0.2000E+02
 -10.485  0.4798E-02  0.2000E+02
 -10.475  0.4565E-02  0.2000E+02
 -10.465  0.4342E-02  0.2000E+02
 -10.455  0.4129E-02  0.2000E+02
 -10.445  0.3927E-02  0.2000E+02
 -10.435  0.3733E-02  0.2000E+02
 -10.425  0.3548E-02  0.2000E+02
 -10.415  0.3372E-02  0.2000E+02
 -10.405  0.3205E-02  0.2000E+02
 -10.395  0.3045E-02  0.2000E+02
 -10.385  0.2892E-02  0.2000E+02
 -10.375  0.2747E-02  0.2000E+02
 -10.365  0.2609E-02  0.2000E+02
 -10.355  0.2477E-02  0.2000E+02
 -10.345  0.2351E-02  0.2000E+02
 -10.335  0.2232E-02  0.2000E+02
 -10.325  0.2118E-02  0.2000E+02
 -10.315  0.2010E-02  0.2000E+02
 -10.305  0.1906E-02  0.2000E+02
 -10.295  0.1808E-02  0.2000E+02
 -10.285  0.1715E-02  0.2000E+02
 -10.275  0.1626E-02  0.2000E+02
 -10.265  0.1542E-02  0.2000E+02
 -10.255  0.1461E-02  0.2000E+02
 -10.245  0.1385E-02  0.2000E+02
 -10.235  0.1313E-02  0.2000E+02
 -10.225  0.1244E-02  0.2000E+02
 -10.215  0.1178E-02  0.2000E+02
 -10.205  0.1116E-02  0.2000E+02
 -10.195  0.1057E-02  0.2000E+02
 -10.185  0.1000E-02  0.2000E+02
 -10.175  0.9471E-03  0.2000E+02
 -10.165  0.8964E-03  0.2000E+02
 -10.155  0.8483E-03  0.2000E+02
 -10.145  0.8027E-03  0.2000E+02
 -10.135  0.7594E-03  0.2000E+02
 -10.125  0.7183E-03  0.2000E+02
 -10.115  0.6794E-03  0.2000E+02
 -10.105  0.6424E-03  0.2000E+02
 -10.095  0.6073E-03  0.2000E+02
 -10.085  0.5741E-03  0.2000E+02
 -10.075  0.5426E-03  0.2000E+02
 -10.065  0.5127E-03  0.2000E+02
 -10.055  0.4844E-03  0.2000E+02
 -10.045  0.4576E-03  0.2000E+02
 -10.035  0.4322E-03  0.2000E+02
 -10.025  0.4082E-03  0.2000E+02
 -10.015  0.3854E-03  0.2000E+02
 -10.005  0.3638E-03  0.2000E+02
  -9.995  0.3434E-03  0.2000E+02
  -9.985  0.3241E-03  0.2000E+02
  -9.975  0.3058E-03  0.2000E+02
  -9.965  0.2885E-03  0.2000E+02
  -9.955  0.2721E-03  0.2000E+02
  -9.945  0.2566E-03  0.2000E+02
  -9.935  0.2420E-03  0.2000E+02
  -9.925  0.2282E-03  0.2000E+02
  -9.915  0.2151E-03  0.2000E+02
  -9.905  0.2027E-03  0.2000E+02
  -9.895  0.1910E-03  0.2000E+02
  -9.885  0.1800E-03  0.2000E+02
  -9.875  0.1695E-03  0.2000E+02
  -9.865  0.1597E-03  0.2000E+02
  -9.855  0.1504E-03  0.2000E+02
  -9.845  0.1416E-03  0.2000E+02
  -9.835  0.1333E-03  0.2000E+02
  -9.825  0.1255E-03  0.2000E+02
  -9.815  0.1181E-03  0.2000E+02
  -9.805  0.1111E-03  0.2000E+02
  -9.795  0.1045E-03  0.2000E+02
  -9.785  0.9831E-04  0.2000E+02
  -9.775  0.9246E-04  0.2000E+02
  -9.765  0.8694E-04  0.2000E+02
  -9.755  0.8174E-04  0.2000E+02
  -9.745  0.7684E-04  0.2000E+02
  -9.735  0.7222E-04  0.2000E+02
  -9.725  0.6786E-04  0.2000E+02
  -9.715  0.6376E-04  0.2000E+02
  -9.705  0.5990E-04  0.2000E+02
  -9.695  0.5626E-04  0.2000E+02
  -9.685  0.5283E-04  0.2000E+02
  -9.675  0.4960E-04  0.2000E+02
  -9.665  0.4657E-04  0.2000E+02
  -9.655  0.4371E-04  0.2000E+02
  -9.645  0.4102E-04  0.2000E+02
  -9.635  0.3849E-04  0.2000E+02
  -9.625  0.3611E-04  0.2000E+02
  -9.615  0.3387E-04  0.2000E+02
  -9.605  0.3177E-04  0.2000E+02
  -9.595  0.2979E-04  0.2000E+02
  -9.585  0.2793E-04  0.2000E+02
  -9.575  0.2618E-04  0.2000E+02
  -9.565  0.2453E-04  0.2000E+02
  -9.555  0.2299E-04  0.2000E+02
  -9.545  0.2154E-04  0.2000E+02
  -9.535  0.2018E-04  0.2000E+02
  -9.525  0.1890E-04  0.2000E+02
  -9.515  0.1770E-04  0.2000E+02
  -9.505  0.1657E-04  0.2000E+02
  -9.495  0.1551E-04  0.2000E+02
  -9.485  0.1452E-04  0.2000E+02
  -9.475  0.1359E-04  0.2000E+02
  -9.465  0.1272E-04  0.2000E+02
  -9.455  0.1190E-04  0.2000E+02
  -9.445  0.1113E-04  0.2000E+02
  -9.435  0.1041E-04  0.2000E+02
  -9.425  0.9731E-05  0.2000E+02
  -9.415  0.9097E-05  0.2000E+02
  -9.405  0.8504E-05  0.2000E+02
  -9.395  0.7948E-05  0.2000E+02
  -9.385  0.7427E-05  0.2000E+02
  -9.375  0.6939E-05  0.2000E+02
  -9.365  0.6482E-05  0.2000E+02
  -9.355  0.6054E-05  0.2000E+02
  -9.345  0.5654E-05  0.2000E+02
  -9.335  0.5279E-05  0.2000E+02
  -9.325  0.4928E-05  0.2000E+02
  -9.315  0.4600E-05  0.2000E+02
  -9.305  0.4292E-05  0.2000E+02
  -9.295  0.4005E-05  0.2000E+02
  -9.285  0.3736E-05  0.2000E+02
  -9.275  0.3485E-05  0.2000E+02
  -9.265  0.3250E-05  0.2000E+02
  -9.255  0.3031E-05  0.2000E+02
  -9.245  0.2826E-05  0.2000E+02
  -9.235  0.2634E-05  0.2000E+02
  -9.225  0.2455E-05  0.2000E+02
  -9.215  0.2287E-05  0.2000E+02
  -9.205  0.2131E-05  0.2000E+02
  -9.195  0.1985E-05  0.2000E+02
  -9.185  0.1849E-05  0.2000E+02
  -9.175  0.1722E-05  0.2000E+02
  -9.165  0.1603E-05  0.2000E+02
  -9.155  0.1492E-05  0.2000E+02
  -9.145  0.1389E-05  0.2000E+02
  -9.135  0.1293E-05  0.2000E+02
  -9.125  0.1203E-05  0.2000E+02
  -9.115  0.1119E-05  0.2000E+02
  -9.105  0.1041E-05  0.2000E+02
  -9.095  0.9680E-06  0.2000E+02
  -9.085  0.9001E-06  0.2000E+02
  -9.075  0.8368E-06  0.2000E+02
  -9.065  0.7778E-06  0.2000E+02
  -9.055  0.7229E-06  0.2000E+02
  -9.045  0.6717E-06  0.2000E+02
  -9.035  0.6241E-06  0.2000E+02
  -9.025  0.5797E-06  0.2000E+02
  -9.015  0.5384E-06  0.2000E+02
  -9.005  0.5000E-06  0.2000E+02
  -8.995  0.4642E-06  0.2000E+02
  -8.985  0.4309E-06  0.2000E+02
  -8.975  0.4000E-06  0.2000E+02
  -8.965  0.3712E-06  0.2000E+02
  -8.955  0.3444E-06  0.2000E+02
  -8.945  0.3195E-06  0.2000E+02
  -8.935  0.2963E-06  0.2000E+02
  -8.925  0.2748E-06  0.2000E+02
  -8.915  0.2548E-06  0.2000E+02
  -8.905  0.2362E-06  0.2000E+02
  -8.895  0.2190E-06  0.2000E+02
  -8.885  0.2029E-06  0.2000E+02
  -8.875  0.1881E-06  0.2000E+02
  -8.865  0.1742E-06  0.2000E+02
  -8.855  0.1614E-06  0.2000E+02
  -8.845  0.1495E-06  0.2000E+02
  -8.835  0.1384E-06  0.2000E+02
  -8.825  0.1281E-06  0.2000E+02
  -8.815  0.1186E-06  0.2000E+02
  -8.805  0.1098E-06  0.2000E+02
  -8.795  0.1016E-06  0.2000E+02
  -8.785  0.9401E-07  0.2000E+02
  -8.775  0.8696E-07  0.2000E+02
  -8.765  0.8044E-07  0.2000E+02
  -8.755  0.7439E-07  0.2000E+02
  -8.745  0.6878E-07  0.2000E+02
  -8.735  0.6358E-07  0.2000E+02
  -8.725  0.5877E-07  0.2000E+02
  -8.715  0.5432E-07  0.2000E+02
  -8.705  0.5019E-07  0.2000E+02
  -8.695  0.4637E-07  0.2000E+02
  -8.685  0.4283E-07  0.2000E+02
  -8.675  0.3956E-07  0.2000E+02
  -8.665  0.3653E-07  0.2000E+02
  -8.655  0.3372E-07  0.2000E+02
  -8.645  0.3113E-07  0.2000E+02
  -8.635  0.2873E-07  0.2000E+02
  -8.625  0.2651E-07  0.2000E+02
  -8.615  0.2446E-07  0.2000E+02
  -8.605  0.2257E-07  0.2000E+02
  -8.595  0.2081E-07  0.2000E+02
  -8.585  0.1919E-07  0.2000E+02
  -8.575  0.1770E-07  0.2000E+02
  -8.565  0.1631E-07  0.2000E+02
  -8.555  0.1504E-07  0.2000E+02
  -8.545  0.1386E-07  0.2000E+02
  -8.535  0.1277E-07  0.2000E+02
  -8.525  0.1176E-07  0.2000E+02
  -8.515  0.1084E-07  0.2000E+02
  -8.505  0.9979E-08  0.2000E+02
  -8.495  0.9189E-08  0.2000E+02
  -8.485  0.8460E-08  0.2000E+02
  -8.475  0.7787E-08  0.2000E+02
  -8.465  0.7167E-08  0.2000E+02
  -8.455  0.6595E-08  0.2000E+02
  -8.445  0.6068E-08  0.2000E+02
  -8.435  0.5582E-08  0.2000E+02
  -8.425  0.5134E-08  0.2000E+02
  -8.415  0.4721E-08  0.2000E+02
  -8.405  0.4340E-08  0.2000E+02
  -8.395  0.3990E-08  0.2000E+02
  -8.385  0.3667E-08  0.2000E+02
  -8.375  0.3370E-08  0.2000E+02
  -8.365  0.3097E-08  0.2000E+02
  -8.355  0.2845E-08  0.2000E+02
  -8.345  0.2613E-08  0.2000E+02
  -8.335  0.2400E-08  0.2000E+02
  -8.325  0.2203E-08  0.2000E+02
  -8.315  0.2023E-08  0.2000E+02
  -8.305  0.1857E-08  0.2000E+02
  -8.295  0.1704E-08  0.2000E+02
  -8.285  0.1564E-08  0.2000E+02
  -8.275  0.1435E-08  0.2000E+02
  -8.265  0.1316E-08  0.2000E+02
  -8.255  0.1207E-08  0.2000E+02
  -8.245  0.1107E-08  0.2000E+02
  -8.235  0.1015E-08  0.2000E+02
  -8.225  0.9303E-09  0.2000E+02
  -8.215  0.8526E-09  0.2000E+02
  -8.205  0.7814E-09  0.2000E+02
  -8.195  0.7159E-09  0.2000E+02
  -8.185  0.6559E-09  0.2000E+02
  -8.175  0.6008E-09  0.2000E+02
  -8.165  0.5502E-09  0.2000E+02
  -8.155  0.5038E-09  0.2000E+02
  -8.145  0.4612E-09  0.2000E+02
  -8.135  0.4222E-09  0.2000E+02
  -8.125  0.3864E-09  0.2000E+02
  -8.115  0.3536E-09  0.2000E+02
  -8.105  0.3236E-09  0.2000E+02
  -8.095  0.2960E-09  0.2000E+02
  -8.085  0.2708E-09  0.2000E+02
  -8.075  0.2476E-09  0.2000E+02
  -8.065  0.2265E-09  0.2000E+02
  -8.055  0.2071E-09  0.2000E+02
  -8.045  0.1893E-09  0.2000E+02
  -8.035  0.1731E-09  0.2000E+02
  -8.025  0.1582E-09  0.2000E+02
  -8.015  0.1446E-09  0.2000E+02
  -8.005  0.1322E-09  0.2000E+02
  -7.995  0.1208E-09  0.2000E+02
  -7.985  0.1105E-09  0.2000E+02
  -7.975  0.1010E-09  0.2000E+02
  -7.965  0.9230E-10  0.2000E+02
  -7.955  0.8440E-10  0.2000E+02
  -7.945  0.7718E-10  0.2000E+02
  -7.935  0.7061E-10  0.2000E+02
  -7.925  0.6461E-10  0.2000E+02
  -7.915  0.5916E-10  0.2000E+02
  -7.905  0.5419E-10  0.2000E+02
  -7.895  0.4968E-10  0.2000E+02
  -7.885  0.4559E-10  0.2000E+02
  -7.875  0.4188E-10  0.2000E+02
  -7.865  0.3853E-10  0.2000E+02
  -7.855  0.3550E-10  0.2000E+02
  -7.845  0.3277E-10  0.2000E+02
  -7.835  0.3032E-10  0.2000E+02
  -7.825  0.2812E-10  0.2000E+02
  -7.815  0.2617E-10  0.2000E+02
  -7.805  0.2444E-10  0.2000E+02
  -7.795  0.2292E-10  0.2000E+02
  -7.785  0.2159E-10  0.2000E+02
  -7.775  0.2045E-10  0.2000E+02
  -7.765  0.1948E-10  0.2000E+02
  -7.755  0.1868E-10  0.2000E+02
  -7.745  0.1803E-10  0.2000E+02
  -7.735  0.1754E-10  0.2000E+02
  -7.725  0.1719E-10  0.2000E+02
  -7.715  0.1698E-10  0.2000E+02
  -7.705  0.1691E-10  0.2000E+02
  -7.695  0.1698E-10  0.2000E+02
  -7.685  0.1719E-10  0.2000E+02
  -7.675  0.1754E-10  0.2000E+02
  -7.665  0.1802E-10  0.2000E+02
  -7.655  0.1864E-10  0.2000E+02
  -7.645  0.1941E-10  0.2000E+02
  -7.635  0.2033E-10  0.2000E+02
  -7.625  0.2140E-10  0.2000E+02
  -7.615  0.2263E-10  0.2000E+02
  -7.605  0.2403E-10  0.2000E+02
  -7.595  0.2561E-10  0.2000E+02
  -7.585  0.2737E-10  0.2000E+02
  -7.575  0.2934E-10  0.2000E+02
  -7.565  0.3151E-10  0.2000E+02
  -7.555  0.3391E-10  0.2000E+02
  -7.545  0.3655E-10  0.2000E+02
  -7.535  0.3944E-10  0.2000E+02
  -7.525  0.4261E-10  0.2000E+02
  -7.515  0.4608E-10  0.2000E+02
  -7.505  0.4987E-10  0.2000E+02
  -7.495  0.5400E-10  0.2000E+02
  -7.485  0.5849E-10  0.2000E+02
  -7.475  0.6339E-10  0.2000E+02
  -7.465  0.6871E-10  0.2000E+02
  -7.455  0.7450E-10  0.2000E+02
  -7.445  0.8079E-10  0.2000E+02
  -7.435  0.8761E-10  0.2000E+02
  -7.425  0.9502E-10  0.2000E+02
  -7.415  0.1031E-09  0.2000E+02
  -7.405  0.1118E-09  0.2000E+02
  -7.395  0.1212E-09  0.2000E+02
  -7.385  0.1315E-09  0.2000E+02
  -7.375  0.1425E-09  0.2000E+02
  -7.365  0.1546E-09  0.2000E+02
  -7.355  0.1676E-09  0.2000E+02
  -7.345  0.1816E-09  0.2000E+02
  -7.335  0.1969E-09  0.2000E+02
  -7.325  0.2134E-09  0.2000E+02
  -7.315  0.2312E-09  0.2000E+02
  -7.305  0.2505E-09  0.2000E+02
  -7.295  0.2714E-09  0.2000E+02
  -7.285  0.2940E-09  0.2000E+02
  -7.275  0.3184E-09  0.2000E+02
  -7.265  0.3447E-09  0.2000E+02
  -7.255  0.3732E-09  0.2000E+02
  -7.245  0.4040E-09  0.2000E+02
  -7.235  0.4373E-09  0.2000E+02
  -7.225  0.4732E-09  0.2000E+02
  -7.215  0.5120E-09  0.2000E+02
  -7.205  0.5539E-09  0.2000E+02
  -7.195  0.5991E-09  0.2000E+02
  -7.185  0.6479E-09  0.2000E+02
  -7.175  0.7006E-09  0.2000E+02
  -7.165  0.7575E-09  0.2000E+02
  -7.155  0.8188E-09  0.2000E+02
  -7.145  0.8849E-09  0.2000E+02
  -7.135  0.9563E-09  0.2000E+02
  -7.125  0.1033E-08  0.2000E+02
  -7.115  0.1116E-08  0.2000E+02
  -7.105  0.1205E-08  0.2000E+02
  -7.095  0.1302E-08  0.2000E+02
  -7.085  0.1406E-08  0.2000E+02
  -7.075  0.1517E-08  0.2000E+02
  -7.065  0.1638E-08  0.2000E+02
  -7.055  0.1768E-08  0.2000E+02
  -7.045  0.1907E-08  0.2000E+02
  -7.035  0.2058E-08  0.2000E+02
  -7.025  0.2220E-08  0.2000E+02
  -7.015  0.2394E-08  0.2000E+02
  -7.005  0.2582E-08  0.2000E+02
  -6.995  0.2783E-08  0.2000E+02
  -6.985  0.3000E-08  0.2000E+02
  -6.975  0.3234E-08  0.2000E+02
  -6.965  0.3485E-08  0.2000E+02
  -6.955  0.3755E-08  0.2000E+02
  -6.945  0.4045E-08  0.2000E+02
  -6.935  0.4357E-08  0.2000E+02
  -6.925  0.4692E-08  0.2000E+02
  -6.915  0.5053E-08  0.2000E+02
  -6.905  0.5440E-08  0.2000E+02
  -6.895  0.5855E-08  0.2000E+02
  -6.885  0.6302E-08  0.2000E+02
  -6.875  0.6781E-08  0.2000E+02
  -6.865  0.7296E-08  0.2000E+02
  -6.855  0.7849E-08  0.2000E+02
  -6.845  0.8442E-08  0.2000E+02
  -6.835  0.9078E-08  0.2000E+02
  -6.825  0.9761E-08  0.2000E+02
  -6.815  0.1049E-07  0.2000E+02
  -6.805  0.1128E-07  0.2000E+02
  -6.795  0.1212E-07  0.2000E+02
  -6.785  0.1302E-07  0.2000E+02
  -6.775  0.1399E-07  0.2000E+02
  -6.765  0.1503E-07  0.2000E+02
  -6.755  0.1614E-07  0.2000E+02
  -6.745  0.1733E-07  0.2000E+02
  -6.735  0.1861E-07  0.2000E+02
  -6.725  0.1998E-07  0.2000E+02
  -6.715  0.2144E-07  0.2000E+02
  -6.705  0.2301E-07  0.2000E+02
  -6.695  0.2469E-07  0.2000E+02
  -6.685  0.2649E-07  0.2000E+02
  -6.675  0.2841E-07  0.2000E+02
  -6.665  0.3047E-07  0.2000E+02
  -6.655  0.3267E-07  0.2000E+02
  -6.645  0.3502E-07  0.2000E+02
  -6.635  0.3754E-07  0.2000E+02
  -6.625  0.4024E-07  0.2000E+02
  -6.615  0.4312E-07  0.2000E+02
  -6.605  0.4620E-07  0.2000E+02
  -6.595  0.4949E-07  0.2000E+02
  -6.585  0.5300E-07  0.2000E+02
  -6.575  0.5676E-07  0.2000E+02
  -6.565  0.6077E-07  0.2000E+02
  -6.555  0.6506E-07  0.2000E+02
  -6.545  0.6964E-07  0.2000E+02
  -6.535  0.7453E-07  0.2000E+02
  -6.525  0.7975E-07  0.2000E+02
  -6.515  0.8532E-07  0.2000E+02
  -6.505  0.9126E-07  0.2000E+02
  -6.495  0.9761E-07  0.2000E+02
  -6.485  0.1044E-06  0.2000E+02
  -6.475  0.1116E-06  0.2000E+02
  -6.465  0.1193E-06  0.2000E+02
  -6.455  0.1275E-06  0.2000E+02
  -6.445  0.1363E-06  0.2000E+02
  -6.435  0.1456E-06  0.2000E+02
  -6.425  0.1555E-06  0.2000E+02
  -6.415  0.1661E-06  0.2000E+02
  -6.405  0.1774E-06  0.2000E+02
  -6.395  0.1895E-06  0.2000E+02
  -6.385  0.2023E-06  0.2000E+02
  -6.375  0.2159E-06  0.2000E+02
  -6.365  0.2304E-06  0.2000E+02
  -6.355  0.2459E-06  0.2000E+02
  -6.345  0.2624E-06  0.2000E+02
  -6.335  0.2799E-06  0.2000E+02
  -6.325  0.2985E-06  0.2000E+02
  -6.315  0.3184E-06  0.2000E+02
  -6.305  0.3395E-06  0.2000E+02
  -6.295  0.3619E-06  0.2000E+02
  -6.285  0.3858E-06  0.2000E+02
  -6.275  0.4111E-06  0.2000E+02
  -6.265  0.4381E-06  0.2000E+02
  -6.255  0.4668E-06  0.2000E+02
  -6.245  0.4972E-06  0.2000E+02
  -6.235  0.5296E-06  0.2000E+02
  -6.225  0.5640E-06  0.2000E+02
  -6.215  0.6005E-06  0.2000E+02
  -6.205  0.6393E-06  0.2000E+02
  -6.195  0.6804E-06  0.2000E+02
  -6.185  0.7241E-06  0.2000E+02
  -6.175  0.7705E-06  0.2000E+02
  -6.165  0.8197E-06  0.2000E+02
  -6.155  0.8720E-06  0.2000E+02
  -6.145  0.9274E-06  0.2000E+02
  -6.135  0.9862E-06  0.2000E+02
  -6.125  0.1049E-05  0.2000E+02
  -6.115  0.1115E-05  0.2000E+02
  -6.105  0.1185E-05  0.2000E+02
  -6.095  0.1259E-05  0.2000E+02
  -6.085  0.1338E-05  0.2000E+02
  -6.075  0.1421E-05  0.2000E+02
  -6.065  0.1510E-05  0.2000E+02
  -6.055  0.1603E-05  0.2000E+02
  -6.045  0.1702E-05  0.2000E+02
  -6.035  0.1807E-05  0.2000E+02
  -6.025  0.1919E-05  0.2000E+02
  -6.015  0.2036E-05  0.2000E+02
  -6.005  0.2161E-05  0.2000E+02
  -5.995  0.2293E-05  0.2000E+02
  -5.985  0.2433E-05  0.2000E+02
  -5.975  0.2580E-05  0.2000E+02
  -5.965  0.2736E-05  0.2000E+02
  -5.955  0.2901E-05  0.2000E+02
  -5.945  0.3076E-05  0.2000E+02
  -5.935  0.3261E-05  0.2000E+02
  -5.925  0.3456E-05  0.2000E+02
  -5.915  0.3662E-05  0.2000E+02
  -5.905  0.3880E-05  0.2000E+02
  -5.895  0.4111E-05  0.2000E+02
  -5.885  0.4354E-05  0.2000E+02
  -5.875  0.4611E-05  0.2000E+02
  -5.865  0.4882E-05  0.2000E+02
  -5.855  0.5169E-05  0.2000E+02
  -5.845  0.5471E-05  0.2000E+02
  -5.835  0.5790E-05  0.2000E+02
  -5.825  0.6127E-05  0.2000E+02
  -5.815  0.6483E-05  0.2000E+02
  -5.805  0.6858E-05  0.2000E+02
  -5.795  0.7253E-05  0.2000E+02
  -5.785  0.7671E-05  0.2000E+02
  -5.775  0.8111E-05  0.2000E+02
  -5.765  0.8575E-05  0.2000E+02
  -5.755  0.9063E-05  0.2000E+02
  -5.745  0.9579E-05  0.2000E+02
  -5.735  0.1012E-04  0.2000E+02
  -5.725  0.1069E-04  0.2000E+02
  -5.715  0.1130E-04  0.2000E+02
  -5.705  0.1193E-04  0.2000E+02
  -5.695  0.1260E-04  0.2000E+02
  -5.685  0.1330E-04  0.2000E+02
  -5.675  0.1405E-04  0.2000E+02
  -5.665  0.1483E-04  0.2000E+02
  -5.655  0.1565E-04  0.2000E+02
  -5.645  0.1651E-04  0.2000E+02
  -5.635  0.1742E-04  0.2000E+02
  -5.625  0.1837E-04  0.2000E+02
  -5.615  0.1938E-04  0.2000E+02
  -5.605  0.2044E-04  0.2000E+02
  -5.595  0.2155E-04  0.2000E+02
  -5.585  0.2272E-04  0.2000E+02
  -5.575  0.2394E-04  0.2000E+02
  -5.565  0.2523E-04  0.2000E+02
  -5.555  0.2659E-04  0.2000E+02
  -5.545  0.2801E-04  0.2000E+02
  -5.535  0.2951E-04  0.2000E+02
  -5.525  0.3108E-04  0.2000E+02
  -5.515  0.3273E-04  0.2000E+02
  -5.505  0.3446E-04  0.2000E+02
  -5.495  0.3628E-04  0.2000E+02
  -5.485  0.3819E-04  0.2000E+02
  -5.475  0.4019E-04  0.2000E+02
  -5.465  0.4229E-04  0.2000E+02
  -5.455  0.4449E-04  0.2000E+02
  -5.445  0.4680E-04  0.2000E+02
  -5.435  0.4923E-04  0.2000E+02
  -5.425  0.5177E-04  0.2000E+02
  -5.415  0.5443E-04  0.2000E+02
  -5.405  0.5722E-04  0.2000E+02
  -5.395  0.6015E-04  0.2000E+02
  -5.385  0.6321E-04  0.2000E+02
  -5.375  0.6642E-04  0.2000E+02
  -5.365  0.6978E-04  0.2000E+02
  -5.355  0.7331E-04  0.2000E+02
  -5.345  0.7699E-04  0.2000E+02
  -5.335  0.8085E-04  0.2000E+02
  -5.325  0.8489E-04  0.2000E+02
  -5.315  0.8912E-04  0.2000E+02
  -5.305  0.9355E-04  0.2000E+02
  -5.295  0.9818E-04  0.2000E+02
  -5.285  0.1030E-03  0.2000E+02
  -5.275  0.1081E-03  0.2000E+02
  -5.265  0.1134E-03  0.2000E+02
  -5.255  0.1189E-03  0.2000E+02
  -5.245  0.1247E-03  0.2000E+02
  -5.235  0.1308E-03  0.2000E+02
  -5.225  0.1371E-03  0.2000E+02
  -5.215  0.1437E-03  0.2000E+02
  -5.205  0.1506E-03  0.2000E+02
  -5.195  0.1578E-03  0.2000E+02
  -5.185  0.1654E-03  0.2000E+02
  -5.175  0.1732E-03  0.2000E+02
  -5.165  0.1814E-03  0.2000E+02
  -5.155  0.1900E-03  0.2000E+02
  -5.145  0.1990E-03  0.2000E+02
  -5.135  0.2083E-03  0.2000E+02
  -5.125  0.2180E-03  0.2000E+02
  -5.115  0.2282E-03  0.2000E+02
  -5.105  0.2388E-03  0.2000E+02
  -5.095  0.2499E-03  0.2000E+02
  -5.085  0.2614E-03  0.2000E+02
  -5.075  0.2734E-03  0.2000E+02
  -5.065  0.2859E-03  0.2000E+02
  -5.055  0.2990E-03  0.2000E+02
  -5.045  0.3126E-03  0.2000E+02
  -5.035  0.3268E-03  0.2000E+02
  -5.025  0.3415E-03  0.2000E+02
  -5.015  0.3569E-03  0.2000E+02
  -5.005  0.3729E-03  0.2000E+02
  -4.995  0.3896E-03  0.2000E+02
  -4.985  0.4069E-03  0.2000E+02
  -4.975  0.4250E-03  0.2000E+02
  -4.965  0.4438E-03  0.2000E+02
  -4.955  0.4634E-03  0.2000E+02
  -4.945  0.4837E-03  0.2000E+02
  -4.935  0.5049E-03  0.2000E+02
  -4.925  0.5269E-03  0.2000E+02
  -4.915  0.5498E-03  0.2000E+02
  -4.905  0.5736E-03  0.2000E+02
  -4.895  0.5984E-03  0.2000E+02
  -4.885  0.6241E-03  0.2000E+02
  -4.875  0.6508E-03  0.2000E+02
  -4.865  0.6786E-03  0.2000E+02
  -4.855  0.7074E-03  0.2000E+02
  -4.845  0.7374E-03  0.2000E+02
  -4.835  0.7685E-03  0.2000E+02
  -4.825  0.8008E-03  0.2000E+02
  -4.815  0.8344E-03  0.2000E+02
  -4.805  0.8692E-03  0.2000E+02
  -4.795  0.9054E-03  0.2000E+02
  -4.785  0.9429E-03  0.2000E+02
  -4.775  0.9818E-03  0.2000E+02
  -4.765  0.1022E-02  0.2000E+02
  -4.755  0.1064E-02  0.2000E+02
  -4.745  0.1107E-02  0.2000E+02
  -4.735  0.1152E-02  0.2000E+02
  -4.725  0.1199E-02  0.2000E+02
  -4.715  0.1248E-02  0.2000E+02
  -4.705  0.1298E-02  0.2000E+02
  -4.695  0.1350E-02  0.2000E+02
  -4.685  0.1403E-02  0.2000E+02
  -4.675  0.1459E-02  0.2000E+02
  -4.665  0.1517E-02  0.2000E+02
  -4.655  0.1577E-02  0.2000E+02
  -4.645  0.1639E-02  0.2000E+02
  -4.635  0.1703E-02  0.2000E+02
  -4.625  0.1769E-02  0.2000E+02
  -4.615  0.1838E-02  0.2000E+02
  -4.605  0.1909E-02  0.2000E+02
  -4.595  0.1982E-02  0.2000E+02
  -4.585  0.2059E-02  0.2000E+02
  -4.575  0.2137E-02  0.2000E+02
  -4.565  0.2219E-02  0.2000E+02
  -4.555  0.2303E-02  0.2000E+02
  -4.545  0.2390E-02  0.2000E+02
  -4.535  0.2479E-02  0.2000E+02
  -4.525  0.2572E-02  0.2000E+02
  -4.515  0.2668E-02  0.2000E+02
  -4.505  0.2767E-02  0.2000E+02
  -4.495  0.2870E-02  0.2000E+02
  -4.485  0.2976E-02  0.2000E+02
  -4.475  0.3085E-02  0.2000E+02
  -4.465  0.3198E-02  0.2000E+02
  -4.455  0.3314E-02  0.2000E+02
  -4.445  0.3434E-02  0.2000E+02
  -4.435  0.3558E-02  0.2000E+02
  -4.425  0.3686E-02  0.2000E+02
  -4.415  0.3818E-02  0.2000E+02
  -4.405  0.3954E-02  0.2000E+02
  -4.395  0.4095E-02  0.2000E+02
  -4.385  0.4240E-02  0.2000E+02
  -4.375  0.4389E-02  0.2000E+02
  -4.365  0.4543E-02  0.2000E+02
  -4.355  0.4701E-02  0.2000E+02
  -4.345  0.4865E-02  0.2000E+02
  -4.335  0.5033E-02  0.2000E+02
  -4.325  0.5207E-02  0.2000E+02
  -4.315  0.5386E-02  0.2000E+02
  -4.305  0.5570E-02  0.2000E+02
  -4.295  0.5759E-02  0.2000E+02
  -4.285  0.5955E-02  0.2000E+02
  -4.275  0.6156E-02  0.2000E+02
  -4.265  0.6362E-02  0.2000E+02
  -4.255  0.6575E-02  0.2000E+02
  -4.245  0.6794E-02  0.2000E+02
  -4.235  0.7020E-02  0.2000E+02
  -4.225  0.7251E-02  0.2000E+02
  -4.215  0.7490E-02  0.2000E+02
  -4.205  0.7735E-02  0.2000E+02
  -4.195  0.7987E-02  0.2000E+02
  -4.185  0.8246E-02  0.2000E+02
  -4.175  0.8512E-02  0.2000E+02
  -4.165  0.8786E-02  0.2000E+02
  -4.155  0.9067E-02  0.2000E+02
  -4.145  0.9356E-02  0.2000E+02
  -4.135  0.9653E-02  0.2000E+02
  -4.125  0.9958E-02  0.2000E+02
  -4.115  0.1027E-01  0.2000E+02
  -4.105  0.1059E-01  0.2000E+02
  -4.095  0.1092E-01  0.2000E+02
  -4.085  0.1126E-01  0.2000E+02
  -4.075  0.1161E-01  0.2000E+02
  -4.065  0.1197E-01  0.2000E+02
  -4.055  0.1233E-01  0.2000E+02
  -4.045  0.1271E-01  0.2000E+02
  -4.035  0.1309E-01  0.2000E+02
  -4.025  0.1349E-01  0.2000E+02
  -4.015  0.1389E-01  0.2000E+02
  -4.005  0.1431E-01  0.2000E+02
  -3.995  0.1473E-01  0.2000E+02
  -3.985  0.1517E-01  0.2000E+02
  -3.975  0.1562E-01  0.2000E+02
  -3.965  0.1607E-01  0.2000E+02
  -3.955  0.1654E-01  0.2001E+02
  -3.945  0.1702E-01  0.2001E+02
  -3.935  0.1752E-01  0.2001E+02
  -3.925  0.1802E-01  0.2001E+02
  -3.915  0.1854E-01  0.2001E+02
  -3.905  0.1906E-01  0.2001E+02
  -3.895  0.1961E-01  0.2001E+02
  -3.885  0.2016E-01  0.2001E+02
  -3.875  0.2072E-01  0.2001E+02
  -3.865  0.2130E-01  0.2001E+02
  -3.855  0.2190E-01  0.2001E+02
  -3.845  0.2250E-01  0.2001E+02
  -3.835  0.2312E-01  0.2001E+02
  -3.825  0.2376E-01  0.2001E+02
  -3.815  0.2440E-01  0.2001E+02
  -3.805  0.2507E-01  0.2001E+02
  -3.795  0.2574E-01  0.2001E+02
  -3.785  0.2643E-01  0.2001E+02
  -3.775  0.2714E-01  0.2001E+02
  -3.765  0.2786E-01  0.2001E+02
  -3.755  0.2860E-01  0.2001E+02
  -3.745  0.2935E-01  0.2001E+02
  -3.735  0.3012E-01  0.2001E+02
  -3.725  0.3091E-01  0.2001E+02
  -3.715  0.3171E-01  0.2001E+02
  -3.705  0.3253E-01  0.2001E+02
  -3.695  0.3336E-01  0.2001E+02
  -3.685  0.3422E-01  0.2001E+02
  -3.675  0.3508E-01  0.2001E+02
  -3.665  0.3597E-01  0.2001E+02
  -3.655  0.3688E-01  0.2001E+02
  -3.645  0.3780E-01  0.2001E+02
  -3.635  0.3874E-01  0.2001E+02
  -3.625  0.3970E-01  0.2001E+02
  -3.615  0.4068E-01  0.2001E+02
  -3.605  0.4167E-01  0.2001E+02
  -3.595  0.4269E-01  0.2002E+02
  -3.585  0.4372E-01  0.2002E+02
  -3.575  0.4478E-01  0.2002E+02
  -3.565  0.4585E-01  0.2002E+02
  -3.555  0.4694E-01  0.2002E+02
  -3.545  0.4806E-01  0.2002E+02
  -3.535  0.4919E-01  0.2002E+02
  -3.525  0.5035E-01  0.2002E+02
  -3.515  0.5152E-01  0.2002E+02
  -3.505  0.5272E-01  0.2002E+02
  -3.495  0.5394E-01  0.2002E+02
  -3.485  0.5518E-01  0.2002E+02
  -3.475  0.5644E-01  0.2002E+02
  -3.465  0.5772E-01  0.2002E+02
  -3.455  0.5902E-01  0.2002E+02
  -3.445  0.6035E-01  0.2002E+02
  -3.435  0.6170E-01  0.2002E+02
  -3.425  0.6307E-01  0.2002E+02
  -3.415  0.6447E-01  0.2002E+02
  -3.405  0.6588E-01  0.2003E+02
  -3.395  0.6732E-01  0.2003E+02
  -3.385  0.6879E-01  0.2003E+02
  -3.375  0.7027E-01  0.2003E+02
  -3.365  0.7178E-01  0.2003E+02
  -3.355  0.7332E-01  0.2003E+02
  -3.345  0.7487E-01  0.2003E+02
  -3.335  0.7646E-01  0.2003E+02
  -3.325  0.7806E-01  0.2003E+02
  -3.315  0.7969E-01  0.2003E+02
  -3.305  0.8135E-01  0.2003E+02
  -3.295  0.8303E-01  0.2003E+02
  -3.285  0.8473E-01  0.2003E+02
  -3.275  0.8646E-01  0.2004E+02
  -3.265  0.8822E-01  0.2004E+02
  -3.255  0.9000E-01  0.2004E+02
  -3.245  0.9181E-01  0.2004E+02
  -3.235  0.9364E-01  0.2004E+02
  -3.225  0.9549E-01  0.2004E+02
  -3.215  0.9738E-01  0.2004E+02
  -3.205  0.9928E-01  0.2004E+02
  -3.195  0.1012E+00  0.2004E+02
  -3.185  0.1032E+00  0.2004E+02
  -3.175  0.1052E+00  0.2005E+02
  -3.165  0.1072E+00  0.2005E+02
  -3.155  0.1092E+00  0.2005E+02
  -3.145  0.1113E+00  0.2005E+02
  -3.135  0.1134E+00  0.2005E+02
  -3.125  0.1155E+00  0.2005E+02
  -3.115  0.1176E+00  0.2005E+02
  -3.105  0.1198E+00  0.2005E+02
  -3.095  0.1220E+00  0.2005E+02
  -3.085  0.1242E+00  0.2006E+02
  -3.075  0.1265E+00  0.2006E+02
  -3.065  0.1288E+00  0.2006E+02
  -3.055  0.1311E+00  0.2006E+02
  -3.045  0.1334E+00  0.2006E+02
  -3.035  0.1358E+00  0.2006E+02
  -3.025  0.1381E+00  0.2006E+02
  -3.015  0.1406E+00  0.2006E+02
  -3.005  0.1430E+00  0.2007E+02
  -2.995  0.1455E+00  0.2007E+02
  -2.985  0.1480E+00  0.2007E+02
  -2.975  0.1505E+00  0.2007E+02
  -2.965  0.1530E+00  0.2007E+02
  -2.955  0.1556E+00  0.2007E+02
  -2.945  0.1582E+00  0.2008E+02
  -2.935  0.1608E+00  0.2008E+02
  -2.925  0.1635E+00  0.2008E+02
  -2.915  0.1662E+00  0.2008E+02
  -2.905  0.1689E+00  0.2008E+02
  -2.895  0.1716E+00  0.2008E+02
  -2.885  0.1744E+00  0.2009E+02
  -2.875  0.1771E+00  0.2009E+02
  -2.865  0.1800E+00  0.2009E+02
  -2.855  0.1828E+00  0.2009E+02
  -2.845  0.1857E+00  0.2009E+02
  -2.835  0.1886E+00  0.2009E+02
  -2.825  0.1915E+00  0.2010E+02
  -2.815  0.1944E+00  0.2010E+02
  -2.805  0.1974E+00  0.2010E+02
  -2.795  0.2004E+00  0.2010E+02
  -2.785  0.2034E+00  0.2010E+02
  -2.775  0.2064E+00  0.2011E+02
  -2.765  0.2095E+00  0.2011E+02
  -2.755  0.2126E+00  0.2011E+02
  -2.745  0.2157E+00  0.2011E+02
  -2.735  0.2189E+00  0.2012E+02
  -2.725  0.2220E+00  0.2012E+02
  -2.715  0.2252E+00  0.2012E+02
  -2.705  0.2284E+00  0.2012E+02
  -2.695  0.2317E+00  0.2012E+02
  -2.685  0.2349E+00  0.2013E+02
  -2.675  0.2382E+00  0.2013E+02
  -2.665  0.2415E+00  0.2013E+02
  -2.655  0.2449E+00  0.2013E+02
  -2.645  0.2482E+00  0.2014E+02
  -2.635  0.2516E+00  0.2014E+02
  -2.625  0.2550E+00  0.2014E+02
  -2.615  0.2584E+00  0.2014E+02
  -2.605  0.2618E+00  0.2015E+02
  -2.595  0.2653E+00  0.2015E+02
  -2.585  0.2688E+00  0.2015E+02
  -2.575  0.2723E+00  0.2015E+02
  -2.565  0.2758E+00  0.2016E+02
  -2.555  0.2794E+00  0.2016E+02
  -2.545  0.2829E+00  0.2016E+02
  -2.535  0.2865E+00  0.2017E+02
  -2.525  0.2901E+00  0.2017E+02
  -2.515  0.2937E+00  0.2017E+02
  -2.505  0.2974E+00  0.2017E+02
  -2.495  0.3010E+00  0.2018E+02
  -2.485  0.3047E+00  0.2018E+02
  -2.475  0.3084E+00  0.2018E+02
  -2.465  0.3121E+00  0.2019E+02
  -2.455  0.3158E+00  0.2019E+02
  -2.445  0.3196E+00  0.2019E+02
  -2.435  0.3233E+00  0.2020E+02
  -2.425  0.3271E+00  0.2020E+02
  -2.415  0.3309E+00  0.2020E+02
  -2.405  0.3347E+00  0.2021E+02
  -2.395  0.3385E+00  0.2021E+02
  -2.385  0.3424E+00  0.2021E+02
  -2.375  0.3462E+00  0.2022E+02
  -2.365  0.3501E+00  0.2022E+02
  -2.355  0.3540E+00  0.2022E+02
  -2.345  0.3578E+00  0.2023E+02
  -2.335  0.3617E+00  0.2023E+02
  -2.325  0.3657E+00  0.2023E+02
  -2.315  0.3696E+00  0.2024E+02
  -2.305  0.3735E+00  0.2024E+02
  -2.295  0.3774E+00  0.2025E+02
  -2.285  0.3814E+00  0.2025E+02
  -2.275  0.3854E+00  0.2025E+02
  -2.265  0.3893E+00  0.2026E+02
  -2.255  0.3933E+00  0.2026E+02
  -2.245  0.3973E+00  0.2027E+02
  -2.235  0.4013E+00  0.2027E+02
  -2.225  0.4053E+00  0.2027E+02
  -2.215  0.4093E+00  0.2028E+02
  -2.205  0.4133E+00  0.2028E+02
  -2.195  0.4173E+00  0.2029E+02
  -2.185  0.4213E+00  0.2029E+02
  -2.175  0.4254E+00  0.2029E+02
  -2.165  0.4294E+00  0.2030E+02
  -2.155  0.4334E+00  0.2030E+02
  -2.145  0.4375E+00  0.2031E+02
  -2.135  0.4415E+00  0.2031E+02
  -2.125  0.4455E+00  0.2032E+02
  -2.115  0.4496E+00  0.2032E+02
  -2.105  0.4536E+00  0.2033E+02
  -2.095  0.4577E+00  0.2033E+02
  -2.085  0.4617E+00  0.2033E+02
  -2.075  0.4657E+00  0.2034E+02
  -2.065  0.4698E+00  0.2034E+02
  -2.055  0.4738E+00  0.2035E+02
  -2.045  0.4778E+00  0.2035E+02
  -2.035  0.4819E+00  0.2036E+02
  -2.025  0.4859E+00  0.2036E+02
  -2.015  0.4899E+00  0.2037E+02
  -2.005  0.4939E+00  0.2037E+02
  -1.995  0.4979E+00  0.2038E+02
  -1.985  0.5019E+00  0.2038E+02
  -1.975  0.5059E+00  0.2039E+02
  -1.965  0.5099E+00  0.2039E+02
  -1.955  0.5139E+00  0.2040E+02
  -1.945  0.5178E+00  0.2040E+02
  -1.935  0.5218E+00  0.2041E+02
  -1.925  0.5257E+00  0.2041E+02
  -1.915  0.5297E+00  0.2042E+02
  -1.905  0.5336E+00  0.2042E+02
  -1.895  0.5375E+00  0.2043E+02
  -1.885  0.5414E+00  0.2044E+02
  -1.875  0.5453E+00  0.2044E+02
  -1.865  0.5491E+00  0.2045E+02
  -1.855  0.5530E+00  0.2045E+02
  -1.845  0.5568E+00  0.2046E+02
  -1.835  0.5606E+00  0.2046E+02
  -1.825  0.5645E+00  0.2047E+02
  -1.815  0.5682E+00  0.2047E+02
  -1.805  0.5720E+00  0.2048E+02
  -1.795  0.5758E+00  0.2049E+02
  -1.785  0.5795E+00  0.2049E+02
  -1.775  0.5832E+00  0.2050E+02
  -1.765  0.5869E+00  0.2050E+02
  -1.755  0.5905E+00  0.2051E+02
  -1.745  0.5942E+00  0.2051E+02
  -1.735  0.5978E+00  0.2052E+02
  -1.725  0.6014E+00  0.2053E+02
  -1.715  0.6050E+00  0.2053E+02
  -1.705  0.6085E+00  0.2054E+02
  -1.695  0.6121E+00  0.2055E+02
  -1.685  0.6156E+00  0.2055E+02
  -1.675  0.6190E+00  0.2056E+02
  -1.665  0.6225E+00  0.2056E+02
  -1.655  0.6259E+00  0.2057E+02
  -1.645  0.6293E+00  0.2058E+02
  -1.635  0.6326E+00  0.2058E+02
  -1.625  0.6360E+00  0.2059E+02
  -1.615  0.6393E+00  0.2060E+02
  -1.605  0.6425E+00  0.2060E+02
  -1.595  0.6458E+00  0.2061E+02
  -1.585  0.6490E+00  0.2061E+02
  -1.575  0.6521E+00  0.2062E+02
  -1.565  0.6553E+00  0.2063E+02
  -1.555  0.6583E+00  0.2063E+02
  -1.545  0.6614E+00  0.2064E+02
  -1.535  0.6644E+00  0.2065E+02
  -1.525  0.6674E+00  0.2065E+02
  -1.515  0.6704E+00  0.2066E+02
  -1.505  0.6733E+00  0.2067E+02
  -1.495  0.6762E+00  0.2067E+02
  -1.485  0.6790E+00  0.2068E+02
  -1.475  0.6818E+00  0.2069E+02
  -1.465  0.6846E+00  0.2069E+02
  -1.455  0.6873E+00  0.2070E+02
  -1.445  0.6900E+00  0.2071E+02
  -1.435  0.6926E+00  0.2072E+02
  -1.425  0.6952E+00  0.2072E+02
  -1.415  0.6978E+00  0.2073E+02
  -1.405  0.7003E+00  0.2074E+02
  -1.395  0.7028E+00  0.2074E+02
  -1.385  0.7052E+00  0.2075E+02
  -1.375  0.7076E+00  0.2076E+02
  -1.365  0.7099E+00  0.2076E+02
  -1.355  0.7122E+00  0.2077E+02
  -1.345  0.7144E+00  0.2078E+02
  -1.335  0.7166E+00  0.2079E+02
  -1.325  0.7188E+00  0.2079E+02
  -1.315  0.7209E+00  0.2080E+02
  -1.305  0.7229E+00  0.2081E+02
  -1.295  0.7249E+00  0.2082E+02
  -1.285  0.7269E+00  0.2082E+02
  -1.275  0.7288E+00  0.2083E+02
  -1.265  0.7307E+00  0.2084E+02
  -1.255  0.7325E+00  0.2084E+02
  -1.245  0.7342E+00  0.2085E+02
  -1.235  0.7359E+00  0.2086E+02
  -1.225  0.7376E+00  0.2087E+02
  -1.215  0.7392E+00  0.2087E+02
  -1.205  0.7408E+00  0.2088E+02
  -1.195  0.7423E+00  0.2089E+02
  -1.185  0.7437E+00  0.2090E+02
  -1.175  0.7451E+00  0.2090E+02
  -1.165  0.7465E+00  0.2091E+02
  -1.155  0.7478E+00  0.2092E+02
  -1.145  0.7490E+00  0.2093E+02
  -1.135  0.7502E+00  0.2093E+02
  -1.125  0.7514E+00  0.2094E+02
  -1.115  0.7524E+00  0.2095E+02
  -1.105  0.7535E+00  0.2096E+02
  -1.095  0.7545E+00  0.2096E+02
  -1.085  0.7554E+00  0.2097E+02
  -1.075  0.7563E+00  0.2098E+02
  -1.065  0.7571E+00  0.2099E+02
  -1.055  0.7578E+00  0.2099E+02
  -1.045  0.7586E+00  0.2100E+02
  -1.035  0.7592E+00  0.2101E+02
  -1.025  0.7598E+00  0.2102E+02
  -1.015  0.7604E+00  0.2102E+02
  -1.005  0.7609E+00  0.2103E+02
  -0.995  0.7613E+00  0.2104E+02
  -0.985  0.7617E+00  0.2105E+02
  -0.975  0.7621E+00  0.2105E+02
  -0.965  0.7623E+00  0.2106E+02
  -0.955  0.7626E+00  0.2107E+02
  -0.945  0.7627E+00  0.2108E+02
  -0.935  0.7629E+00  0.2109E+02
  -0.925  0.7630E+00  0.2109E+02
  -0.915  0.7630E+00  0.2110E+02
  -0.905  0.7629E+00  0.2111E+02
  -0.895  0.7629E+00  0.2112E+02
  -0.885  0.7627E+00  0.2112E+02
  -0.875  0.7625E+00  0.2113E+02
  -0.865  0.7623E+00  0.2114E+02
  -0.855  0.7620E+00  0.2115E+02
  -0.845  0.7617E+00  0.2115E+02
  -0.835  0.7613E+00  0.2116E+02
  -0.825  0.7609E+00  0.2117E+02
  -0.815  0.7604E+00  0.2118E+02
  -0.805  0.7599E+00  0.2118E+02
  -0.795  0.7593E+00  0.2119E+02
  -0.785  0.7586E+00  0.2120E+02
  -0.775  0.7580E+00  0.2121E+02
  -0.765  0.7572E+00  0.2121E+02
  -0.755  0.7565E+00  0.2122E+02
  -0.745  0.7557E+00  0.2123E+02
  -0.735  0.7548E+00  0.2124E+02
  -0.725  0.7539E+00  0.2124E+02
  -0.715  0.7529E+00  0.2125E+02
  -0.705  0.7520E+00  0.2126E+02
  -0.695  0.7509E+00  0.2127E+02
  -0.685  0.7498E+00  0.2127E+02
  -0.675  0.7487E+00  0.2128E+02
  -0.665  0.7476E+00  0.2129E+02
  -0.655  0.7464E+00  0.2130E+02
  -0.645  0.7451E+00  0.2130E+02
  -0.635  0.7438E+00  0.2131E+02
  -0.625  0.7425E+00  0.2132E+02
  -0.615  0.7412E+00  0.2133E+02
  -0.605  0.7398E+00  0.2133E+02
  -0.595  0.7384E+00  0.2134E+02
  -0.585  0.7369E+00  0.2135E+02
  -0.575  0.7354E+00  0.2136E+02
  -0.565  0.7339E+00  0.2136E+02
  -0.555  0.7323E+00  0.2137E+02
  -0.545  0.7307E+00  0.2138E+02
  -0.535  0.7291E+00  0.2139E+02
  -0.525  0.7275E+00  0.2139E+02
  -0.515  0.7258E+00  0.2140E+02
  -0.505  0.7241E+00  0.2141E+02
  -0.495  0.7224E+00  0.2141E+02
  -0.485  0.7206E+00  0.2142E+02
  -0.475  0.7188E+00  0.2143E+02
  -0.465  0.7170E+00  0.2144E+02
  -0.455  0.7152E+00  0.2144E+02
  -0.445  0.7133E+00  0.2145E+02
  -0.435  0.7114E+00  0.2146E+02
  -0.425  0.7095E+00  0.2146E+02
  -0.415  0.7076E+00  0.2147E+02
  -0.405  0.7057E+00  0.2148E+02
  -0.395  0.7038E+00  0.2149E+02
  -0.385  0.7018E+00  0.2149E+02
  -0.375  0.6998E+00  0.2150E+02
  -0.365  0.6978E+00  0.2151E+02
  -0.355  0.6958E+00  0.2151E+02
  -0.345  0.6938E+00  0.2152E+02
  -0.335  0.6918E+00  0.2153E+02
  -0.325  0.6897E+00  0.2153E+02
  -0.315  0.6877E+00  0.2154E+02
  -0.305  0.6856E+00  0.2155E+02
  -0.295  0.6836E+00  0.2156E+02
  -0.285  0.6815E+00  0.2156E+02
  -0.275  0.6794E+00  0.2157E+02
  -0.265  0.6773E+00  0.2158E+02
  -0.255  0.6753E+00  0.2158E+02
  -0.245  0.6732E+00  0.2159E+02
  -0.235  0.6711E+00  0.2160E+02
  -0.225  0.6690E+00  0.2160E+02
  -0.215  0.6669E+00  0.2161E+02
  -0.205  0.6649E+00  0.2162E+02
  -0.195  0.6628E+00  0.2162E+02
  -0.185  0.6607E+00  0.2163E+02
  -0.175  0.6587E+00  0.2164E+02
  -0.165  0.6566E+00  0.2164E+02
  -0.155  0.6546E+00  0.2165E+02
  -0.145  0.6525E+00  0.2166E+02
  -0.135  0.6505E+00  0.2166E+02
  -0.125  0.6485E+00  0.2167E+02
  -0.115  0.6465E+00  0.2167E+02
  -0.105  0.6445E+00  0.2168E+02
  -0.095  0.6425E+00  0.2169E+02
  -0.085  0.6406E+00  0.2169E+02
  -0.075  0.6386E+00  0.2170E+02
  -0.065  0.6367E+00  0.2171E+02
  -0.055  0.6348E+00  0.2171E+02
  -0.045  0.6329E+00  0.2172E+02
  -0.035  0.6311E+00  0.2173E+02
  -0.025  0.6292E+00  0.2173E+02
  -0.015  0.6274E+00  0.2174E+02
  -0.005  0.6256E+00  0.2174E+02
   0.005  0.6238E+00  0.2175E+02
   0.015  0.6221E+00  0.2176E+02
   0.025  0.6203E+00  0.2176E+02
   0.035  0.6186E+00  0.2177E+02
   0.045  0.6170E+00  0.2178E+02
   0.055  0.6153E+00  0.2178E+02
   0.065  0.6137E+00  0.2179E+02
   0.075  0.6121E+00  0.2179E+02
   0.085  0.6105E+00  0.2180E+02
   0.095  0.6090E+00  0.2181E+02
   0.105  0.6075E+00  0.2181E+02
   0.115  0.6061E+00  0.2182E+02
   0.125  0.6046E+00  0.2182E+02
   0.135  0.6032E+00  0.2183E+02
   0.145  0.6019E+00  0.2184E+02
   0.155  0.6005E+00  0.2184E+02
   0.165  0.5992E+00  0.2185E+02
   0.175  0.5980E+00  0.2185E+02
   0.185  0.5968E+00  0.2186E+02
   0.195  0.5956E+00  0.2187E+02
   0.205  0.5944E+00  0.2187E+02
   0.215  0.5933E+00  0.2188E+02
   0.225  0.5923E+00  0.2188E+02
   0.235  0.5912E+00  0.2189E+02
   0.245  0.5902E+00  0.2190E+02
   0.255  0.5893E+00  0.2190E+02
   0.265  0.5884E+00  0.2191E+02
   0.275  0.5875E+00  0.2191E+02
   0.285  0.5867E+00  0.2192E+02
   0.295  0.5859E+00  0.2193E+02
   0.305  0.5851E+00  0.2193E+02
   0.315  0.5844E+00  0.2194E+02
   0.325  0.5837E+00  0.2194E+02
   0.335  0.5831E+00  0.2195E+02
   0.345  0.5825E+00  0.2195E+02
   0.355  0.5820E+00  0.2196E+02
   0.365  0.5815E+00  0.2197E+02
   0.375  0.5810E+00  0.2197E+02
   0.385  0.5806E+00  0.2198E+02
   0.395  0.5803E+00  0.2198E+02
   0.405  0.5799E+00  0.2199E+02
   0.415  0.5796E+00  0.2200E+02
   0.425  0.5794E+00  0.2200E+02
   0.435  0.5792E+00  0.2201E+02
   0.445  0.5790E+00  0.2201E+02
   0.455  0.5789E+00  0.2202E+02
   0.465  0.5788E+00  0.2202E+02
   0.475  0.5788E+00  0.2203E+02
   0.485  0.5788E+00  0.2204E+02
   0.495  0.5789E+00  0.2204E+02
   0.505  0.5789E+00  0.2205E+02
   0.515  0.5791E+00  0.2205E+02
   0.525  0.5792E+00  0.2206E+02
   0.535  0.5795E+00  0.2206E+02
   0.545  0.5797E+00  0.2207E+02
   0.555  0.5800E+00  0.2208E+02
   0.565  0.5803E+00  0.2208E+02
   0.575  0.5807E+00  0.2209E+02
   0.585  0.5811E+00  0.2209E+02
   0.595  0.5815E+00  0.2210E+02
   0.605  0.5820E+00  0.2211E+02
   0.615  0.5825E+00  0.2211E+02
   0.625  0.5831E+00  0.2212E+02
   0.635  0.5837E+00  0.2212E+02
   0.645  0.5843E+00  0.2213E+02
   0.655  0.5850E+00  0.2213E+02
   0.665  0.5856E+00  0.2214E+02
   0.675  0.5864E+00  0.2215E+02
   0.685  0.5871E+00  0.2215E+02
   0.695  0.5879E+00  0.2216E+02
   0.705  0.5887E+00  0.2216E+02
   0.715  0.5896E+00  0.2217E+02
   0.725  0.5905E+00  0.2218E+02
   0.735  0.5914E+00  0.2218E+02
   0.745  0.5923E+00  0.2219E+02
   0.755  0.5933E+00  0.2219E+02
   0.765  0.5943E+00  0.2220E+02
   0.775  0.5953E+00  0.2221E+02
   0.785  0.5963E+00  0.2221E+02
   0.795  0.5974E+00  0.2222E+02
   0.805  0.5985E+00  0.2222E+02
   0.815  0.5996E+00  0.2223E+02
   0.825  0.6007E+00  0.2224E+02
   0.835  0.6019E+00  0.2224E+02
   0.845  0.6030E+00  0.2225E+02
   0.855  0.6042E+00  0.2225E+02
   0.865  0.6054E+00  0.2226E+02
   0.875  0.6066E+00  0.2227E+02
   0.885  0.6079E+00  0.2227E+02
   0.895  0.6091E+00  0.2228E+02
   0.905  0.6104E+00  0.2228E+02
   0.915  0.6117E+00  0.2229E+02
   0.925  0.6130E+00  0.2230E+02
   0.935  0.6143E+00  0.2230E+02
   0.945  0.6156E+00  0.2231E+02
   0.955  0.6169E+00  0.2231E+02
   0.965  0.6182E+00  0.2232E+02
   0.975  0.6195E+00  0.2233E+02
   0.985  0.6209E+00  0.2233E+02
   0.995  0.6222E+00  0.2234E+02
   1.005  0.6236E+00  0.2235E+02
   1.015  0.6249E+00  0.2235E+02
   1.025  0.6263E+00  0.2236E+02
   1.035  0.6276E+00  0.2236E+02
   1.045  0.6290E+00  0.2237E+02
   1.055  0.6303E+00  0.2238E+02
   1.065  0.6317E+00  0.2238E+02
   1.075  0.6330E+00  0.2239E+02
   1.085  0.6343E+00  0.2240E+02
   1.095  0.6357E+00  0.2240E+02
   1.105  0.6370E+00  0.2241E+02
   1.115  0.6383E+00  0.2242E+02
   1.125  0.6396E+00  0.2242E+02
   1.135  0.6409E+00  0.2243E+02
   1.145  0.6422E+00  0.2243E+02
   1.155  0.6435E+00  0.2244E+02
   1.165  0.6447E+00  0.2245E+02
   1.175  0.6460E+00  0.2245E+02
   1.185  0.6472E+00  0.2246E+02
   1.195  0.6484E+00  0.2247E+02
   1.205  0.6496E+00  0.2247E+02
   1.215  0.6508E+00  0.2248E+02
   1.225  0.6520E+00  0.2249E+02
   1.235  0.6531E+00  0.2249E+02
   1.245  0.6542E+00  0.2250E+02
   1.255  0.6553E+00  0.2251E+02
   1.265  0.6564E+00  0.2251E+02
   1.275  0.6574E+00  0.2252E+02
   1.285  0.6585E+00  0.2253E+02
   1.295  0.6595E+00  0.2253E+02
   1.305  0.6605E+00  0.2254E+02
   1.315  0.6614E+00  0.2255E+02
   1.325  0.6623E+00  0.2255E+02
   1.335  0.6632E+00  0.2256E+02
   1.345  0.6641E+00  0.2257E+02
   1.355  0.6649E+00  0.2257E+02
   1.365  0.6657E+00  0.2258E+02
   1.375  0.6665E+00  0.2259E+02
   1.385  0.6673E+00  0.2259E+02
   1.395  0.6680E+00  0.2260E+02
   1.405  0.6686E+00  0.2261E+02
   1.415  0.6693E+00  0.2261E+02
   1.425  0.6699E+00  0.2262E+02
   1.435  0.6705E+00  0.2263E+02
   1.445  0.6710E+00  0.2263E+02
   1.455  0.6715E+00  0.2264E+02
   1.465  0.6720E+00  0.2265E+02
   1.475  0.6724E+00  0.2265E+02
   1.485  0.6728E+00  0.2266E+02
   1.495  0.6732E+00  0.2267E+02
   1.505  0.6735E+00  0.2267E+02
   1.515  0.6737E+00  0.2268E+02
   1.525  0.6740E+00  0.2269E+02
   1.535  0.6742E+00  0.2269E+02
   1.545  0.6743E+00  0.2270E+02
   1.555  0.6744E+00  0.2271E+02
   1.565  0.6745E+00  0.2271E+02
   1.575  0.6746E+00  0.2272E+02
   1.585  0.6745E+00  0.2273E+02
   1.595  0.6745E+00  0.2273E+02
   1.605  0.6744E+00  0.2274E+02
   1.615  0.6743E+00  0.2275E+02
   1.625  0.6741E+00  0.2275E+02
   1.635  0.6739E+00  0.2276E+02
   1.645  0.6736E+00  0.2277E+02
   1.655  0.6733E+00  0.2277E+02
   1.665  0.6729E+00  0.2278E+02
   1.675  0.6726E+00  0.2279E+02
   1.685  0.6721E+00  0.2279E+02
   1.695  0.6716E+00  0.2280E+02
   1.705  0.6711E+00  0.2281E+02
   1.715  0.6705E+00  0.2281E+02
   1.725  0.6699E+00  0.2282E+02
   1.735  0.6693E+00  0.2283E+02
   1.745  0.6686E+00  0.2283E+02
   1.755  0.6679E+00  0.2284E+02
   1.765  0.6671E+00  0.2285E+02
   1.775  0.6663E+00  0.2285E+02
   1.785  0.6654E+00  0.2286E+02
   1.795  0.6645E+00  0.2287E+02
   1.805  0.6635E+00  0.2287E+02
   1.815  0.6625E+00  0.2288E+02
   1.825  0.6615E+00  0.2289E+02
   1.835  0.6604E+00  0.2289E+02
   1.845  0.6593E+00  0.2290E+02
   1.855  0.6581E+00  0.2291E+02
   1.865  0.6569E+00  0.2291E+02
   1.875  0.6557E+00  0.2292E+02
   1.885  0.6544E+00  0.2293E+02
   1.895  0.6531E+00  0.2293E+02
   1.905  0.6518E+00  0.2294E+02
   1.915  0.6504E+00  0.2295E+02
   1.925  0.6489E+00  0.2295E+02
   1.935  0.6474E+00  0.2296E+02
   1.945  0.6459E+00  0.2297E+02
   1.955  0.6444E+00  0.2297E+02
   1.965  0.6428E+00  0.2298E+02
   1.975  0.6412E+00  0.2298E+02
   1.985  0.6395E+00  0.2299E+02
   1.995  0.6378E+00  0.2300E+02
   2.005  0.6361E+00  0.2300E+02
   2.015  0.6343E+00  0.2301E+02
   2.025  0.6325E+00  0.2302E+02
   2.035  0.6307E+00  0.2302E+02
   2.045  0.6289E+00  0.2303E+02
   2.055  0.6270E+00  0.2304E+02
   2.065  0.6250E+00  0.2304E+02
   2.075  0.6231E+00  0.2305E+02
   2.085  0.6211E+00  0.2305E+02
   2.095  0.6191E+00  0.2306E+02
   2.105  0.6170E+00  0.2307E+02
   2.115  0.6150E+00  0.2307E+02
   2.125  0.6129E+00  0.2308E+02
   2.135  0.6108E+00  0.2308E+02
   2.145  0.6086E+00  0.2309E+02
   2.155  0.6064E+00  0.2310E+02
   2.165  0.6042E+00  0.2310E+02
   2.175  0.6020E+00  0.2311E+02
   2.185  0.5998E+00  0.2312E+02
   2.195  0.5975E+00  0.2312E+02
   2.205  0.5952E+00  0.2313E+02
   2.215  0.5929E+00  0.2313E+02
   2.225  0.5906E+00  0.2314E+02
   2.235  0.5882E+00  0.2314E+02
   2.245  0.5858E+00  0.2315E+02
   2.255  0.5835E+00  0.2316E+02
   2.265  0.5811E+00  0.2316E+02
   2.275  0.5786E+00  0.2317E+02
   2.285  0.5762E+00  0.2317E+02
   2.295  0.5737E+00  0.2318E+02
   2.305  0.5713E+00  0.2319E+02
   2.315  0.5688E+00  0.2319E+02
   2.325  0.5663E+00  0.2320E+02
   2.335  0.5638E+00  0.2320E+02
   2.345  0.5613E+00  0.2321E+02
   2.355  0.5588E+00  0.2321E+02
   2.365  0.5562E+00  0.2322E+02
   2.375  0.5537E+00  0.2322E+02
   2.385  0.5512E+00  0.2323E+02
   2.395  0.5486E+00  0.2324E+02
   2.405  0.5460E+00  0.2324E+02
   2.415  0.5435E+00  0.2325E+02
   2.425  0.5409E+00  0.2325E+02
   2.435  0.5383E+00  0.2326E+02
   2.445  0.5358E+00  0.2326E+02
   2.455  0.5332E+00  0.2327E+02
   2.465  0.5306E+00  0.2327E+02
   2.475  0.5280E+00  0.2328E+02
   2.485  0.5254E+00  0.2328E+02
   2.495  0.5229E+00  0.2329E+02
   2.505  0.5203E+00  0.2329E+02
   2.515  0.5177E+00  0.2330E+02
   2.525  0.5152E+00  0.2330E+02
   2.535  0.5126E+00  0.2331E+02
   2.545  0.5100E+00  0.2331E+02
   2.555  0.5075E+00  0.2332E+02
   2.565  0.5049E+00  0.2332E+02
   2.575  0.5024E+00  0.2333E+02
   2.585  0.4999E+00  0.2333E+02
   2.595  0.4974E+00  0.2334E+02
   2.605  0.4948E+00  0.2334E+02
   2.615  0.4923E+00  0.2335E+02
   2.625  0.4899E+00  0.2335E+02
   2.635  0.4874E+00  0.2336E+02
   2.645  0.4849E+00  0.2336E+02
   2.655  0.4825E+00  0.2337E+02
   2.665  0.4800E+00  0.2337E+02
   2.675  0.4776E+00  0.2338E+02
   2.685  0.4752E+00  0.2338E+02
   2.695  0.4729E+00  0.2339E+02
   2.705  0.4705E+00  0.2339E+02
   2.715  0.4681E+00  0.2340E+02
   2.725  0.4658E+00  0.2340E+02
   2.735  0.4635E+00  0.2341E+02
   2.745  0.4612E+00  0.2341E+02
   2.755  0.4590E+00  0.2342E+02
   2.765  0.4567E+00  0.2342E+02
   2.775  0.4545E+00  0.2343E+02
   2.785  0.4523E+00  0.2343E+02
   2.795  0.4502E+00  0.2343E+02
   2.805  0.4480E+00  0.2344E+02
   2.815  0.4459E+00  0.2344E+02
   2.825  0.4438E+00  0.2345E+02
   2.835  0.4417E+00  0.2345E+02
   2.845  0.4397E+00  0.2346E+02
   2.855  0.4377E+00  0.2346E+02
   2.865  0.4357E+00  0.2347E+02
   2.875  0.4338E+00  0.2347E+02
   2.885  0.4319E+00  0.2347E+02
   2.895  0.4300E+00  0.2348E+02
   2.905  0.4282E+00  0.2348E+02
   2.915  0.4264E+00  0.2349E+02
   2.925  0.4246E+00  0.2349E+02
   2.935  0.4228E+00  0.2350E+02
   2.945  0.4211E+00  0.2350E+02
   2.955  0.4195E+00  0.2350E+02
   2.965  0.4178E+00  0.2351E+02
   2.975  0.4162E+00  0.2351E+02
   2.985  0.4147E+00  0.2352E+02
   2.995  0.4132E+00  0.2352E+02
   3.005  0.4117E+00  0.2352E+02
   3.015  0.4102E+00  0.2353E+02
   3.025  0.4089E+00  0.2353E+02
   3.035  0.4075E+00  0.2354E+02
   3.045  0.4062E+00  0.2354E+02
   3.055  0.4049E+00  0.2354E+02
   3.065  0.4037E+00  0.2355E+02
   3.075  0.4025E+00  0.2355E+02
   3.085  0.4014E+00  0.2356E+02
   3.095  0.4003E+00  0.2356E+02
   3.105  0.3993E+00  0.2356E+02
   3.115  0.3983E+00  0.2357E+02
   3.125  0.3973E+00  0.2357E+02
   3.135  0.3964E+00  0.2358E+02
   3.145  0.3956E+00  0.2358E+02
   3.155  0.3948E+00  0.2358E+02
   3.165  0.3940E+00  0.2359E+02
   3.175  0.3933E+00  0.2359E+02
   3.185  0.3927E+00  0.2360E+02
   3.195  0.3921E+00  0.2360E+02
   3.205  0.3915E+00  0.2360E+02
   3.215  0.3911E+00  0.2361E+02
   3.225  0.3906E+00  0.2361E+02
   3.235  0.3902E+00  0.2362E+02
   3.245  0.3899E+00  0.2362E+02
   3.255  0.3896E+00  0.2362E+02
   3.265  0.3894E+00  0.2363E+02
   3.275  0.3893E+00  0.2363E+02
   3.285  0.3892E+00  0.2364E+02
   3.295  0.3891E+00  0.2364E+02
   3.305  0.3892E+00  0.2364E+02
   3.315  0.3892E+00  0.2365E+02
   3.325  0.3894E+00  0.2365E+02
   3.335  0.3896E+00  0.2365E+02
   3.345  0.3898E+00  0.2366E+02
   3.355  0.3902E+00  0.2366E+02
   3.365  0.3905E+00  0.2367E+02
   3.375  0.3910E+00  0.2367E+02
   3.385  0.3915E+00  0.2367E+02
   3.395  0.3921E+00  0.2368E+02
   3.405  0.3927E+00  0.2368E+02
   3.415  0.3934E+00  0.2369E+02
   3.425  0.3941E+00  0.2369E+02
   3.435  0.3950E+00  0.2369E+02
   3.445  0.3959E+00  0.2370E+02
   3.455  0.3968E+00  0.2370E+02
   3.465  0.3978E+00  0.2371E+02
   3.475  0.3989E+00  0.2371E+02
   3.485  0.4001E+00  0.2371E+02
   3.495  0.4013E+00  0.2372E+02
   3.505  0.4026E+00  0.2372E+02
   3.515  0.4040E+00  0.2373E+02
   3.525  0.4054E+00  0.2373E+02
   3.535  0.4069E+00  0.2373E+02
   3.545  0.4084E+00  0.2374E+02
   3.555  0.4101E+00  0.2374E+02
   3.565  0.4118E+00  0.2375E+02
   3.575  0.4136E+00  0.2375E+02
   3.585  0.4154E+00  0.2375E+02
   3.595  0.4173E+00  0.2376E+02
   3.605  0.4193E+00  0.2376E+02
   3.615  0.4214E+00  0.2377E+02
   3.625  0.4235E+00  0.2377E+02
   3.635  0.4257E+00  0.2378E+02
   3.645  0.4280E+00  0.2378E+02
   3.655  0.4303E+00  0.2378E+02
   3.665  0.4327E+00  0.2379E+02
   3.675  0.4352E+00  0.2379E+02
   3.685  0.4377E+00  0.2380E+02
   3.695  0.4404E+00  0.2380E+02
   3.705  0.4431E+00  0.2381E+02
   3.715  0.4458E+00  0.2381E+02
   3.725  0.4487E+00  0.2382E+02
   3.735  0.4516E+00  0.2382E+02
   3.745  0.4546E+00  0.2382E+02
   3.755  0.4577E+00  0.2383E+02
   3.765  0.4608E+00  0.2383E+02
   3.775  0.4640E+00  0.2384E+02
   3.785  0.4673E+00  0.2384E+02
   3.795  0.4706E+00  0.2385E+02
   3.805  0.4740E+00  0.2385E+02
   3.815  0.4775E+00  0.2386E+02
   3.825  0.4811E+00  0.2386E+02
   3.835  0.4847E+00  0.2387E+02
   3.845  0.4884E+00  0.2387E+02
   3.855  0.4922E+00  0.2388E+02
   3.865  0.4960E+00  0.2388E+02
   3.875  0.5000E+00  0.2389E+02
   3.885  0.5039E+00  0.2389E+02
   3.895  0.5080E+00  0.2390E+02
   3.905  0.5121E+00  0.2390E+02
   3.915  0.5163E+00  0.2391E+02
   3.925  0.5206E+00  0.2391E+02
   3.935  0.5249E+00  0.2392E+02
   3.945  0.5293E+00  0.2392E+02
   3.955  0.5338E+00  0.2393E+02
   3.965  0.5383E+00  0.2393E+02
   3.975  0.5429E+00  0.2394E+02
   3.985  0.5476E+00  0.2394E+02
   3.995  0.5523E+00  0.2395E+02
   4.005  0.5571E+00  0.2396E+02
   4.015  0.5619E+00  0.2396E+02
   4.025  0.5669E+00  0.2397E+02
   4.035  0.5718E+00  0.2397E+02
   4.045  0.5769E+00  0.2398E+02
   4.055  0.5820E+00  0.2398E+02
   4.065  0.5872E+00  0.2399E+02
   4.075  0.5924E+00  0.2400E+02
   4.085  0.5977E+00  0.2400E+02
   4.095  0.6030E+00  0.2401E+02
   4.105  0.6085E+00  0.2401E+02
   4.115  0.6139E+00  0.2402E+02
   4.125  0.6194E+00  0.2403E+02
   4.135  0.6250E+00  0.2403E+02
   4.145  0.6307E+00  0.2404E+02
   4.155  0.6364E+00  0.2404E+02
   4.165  0.6421E+00  0.2405E+02
   4.175  0.6479E+00  0.2406E+02
   4.185  0.6537E+00  0.2406E+02
   4.195  0.6596E+00  0.2407E+02
   4.205  0.6656E+00  0.2408E+02
   4.215  0.6716E+00  0.2408E+02
   4.225  0.6776E+00  0.2409E+02
   4.235  0.6837E+00  0.2410E+02
   4.245  0.6898E+00  0.2410E+02
   4.255  0.6960E+00  0.2411E+02
   4.265  0.7022E+00  0.2412E+02
   4.275  0.7085E+00  0.2413E+02
   4.285  0.7148E+00  0.2413E+02
   4.295  0.7212E+00  0.2414E+02
   4.305  0.7276E+00  0.2415E+02
   4.315  0.7340E+00  0.2415E+02
   4.325  0.7404E+00  0.2416E+02
   4.335  0.7469E+00  0.2417E+02
   4.345  0.7535E+00  0.2418E+02
   4.355  0.7600E+00  0.2418E+02
   4.365  0.7666E+00  0.2419E+02
   4.375  0.7733E+00  0.2420E+02
   4.385  0.7799E+00  0.2421E+02
   4.395  0.7866E+00  0.2422E+02
   4.405  0.7933E+00  0.2422E+02
   4.415  0.8001E+00  0.2423E+02
   4.425  0.8069E+00  0.2424E+02
   4.435  0.8136E+00  0.2425E+02
   4.445  0.8205E+00  0.2426E+02
   4.455  0.8273E+00  0.2426E+02
   4.465  0.8341E+00  0.2427E+02
   4.475  0.8410E+00  0.2428E+02
   4.485  0.8479E+00  0.2429E+02
   4.495  0.8548E+00  0.2430E+02
   4.505  0.8617E+00  0.2431E+02
   4.515  0.8687E+00  0.2432E+02
   4.525  0.8756E+00  0.2432E+02
   4.535  0.8826E+00  0.2433E+02
   4.545  0.8895E+00  0.2434E+02
   4.555  0.8965E+00  0.2435E+02
   4.565  0.9035E+00  0.2436E+02
   4.575  0.9105E+00  0.2437E+02
   4.585  0.9174E+00  0.2438E+02
   4.595  0.9244E+00  0.2439E+02
   4.605  0.9314E+00  0.2440E+02
   4.615  0.9384E+00  0.2441E+02
   4.625  0.9454E+00  0.2442E+02
   4.635  0.9524E+00  0.2443E+02
   4.645  0.9593E+00  0.2443E+02
   4.655  0.9663E+00  0.2444E+02
   4.665  0.9733E+00  0.2445E+02
   4.675  0.9802E+00  0.2446E+02
   4.685  0.9872E+00  0.2447E+02
   4.695  0.9941E+00  0.2448E+02
   4.705  0.1001E+01  0.2449E+02
   4.715  0.1008E+01  0.2450E+02
   4.725  0.1015E+01  0.2451E+02
   4.735  0.1022E+01  0.2452E+02
   4.745  0.1029E+01  0.2453E+02
   4.755  0.1035E+01  0.2455E+02
   4.765  0.1042E+01  0.2456E+02
   4.775  0.1049E+01  0.2457E+02
   4.785  0.1056E+01  0.2458E+02
   4.795  0.1062E+01  0.2459E+02
   4.805  0.1069E+01  0.2460E+02
   4.815  0.1076E+01  0.2461E+02
   4.825  0.1083E+01  0.2462E+02
   4.835  0.1089E+01  0.2463E+02
   4.845  0.1096E+01  0.2464E+02
   4.855  0.1102E+01  0.2465E+02
   4.865  0.1109E+01  0.2466E+02
   4.875  0.1115E+01  0.2467E+02
   4.885  0.1122E+01  0.2469E+02
   4.895  0.1128E+01  0.2470E+02
   4.905  0.1135E+01  0.2471E+02
   4.915  0.1141E+01  0.2472E+02
   4.925  0.1147E+01  0.2473E+02
   4.935  0.1153E+01  0.2474E+02
   4.945  0.1160E+01  0.2475E+02
   4.955  0.1166E+01  0.2477E+02
   4.965  0.1172E+01  0.2478E+02
   4.975  0.1178E+01  0.2479E+02
   4.985  0.1184E+01  0.2480E+02
   4.995  0.1190E+01  0.2481E+02
   5.005  0.1196E+01  0.2483E+02
   5.015  0.1202E+01  0.2484E+02
   5.025  0.1207E+01  0.2485E+02
   5.035  0.1213E+01  0.2486E+02
   5.045  0.1219E+01  0.2487E+02
   5.055  0.1225E+01  0.2489E+02
   5.065  0.1230E+01  0.2490E+02
   5.075  0.1236E+01  0.2491E+02
   5.085  0.1241E+01  0.2492E+02
   5.095  0.1246E+01  0.2494E+02
   5.105  0.1252E+01  0.2495E+02
   5.115  0.1257E+01  0.2496E+02
   5.125  0.1262E+01  0.2497E+02
   5.135  0.1267E+01  0.2499E+02
   5.145  0.1273E+01  0.2500E+02
   5.155  0.1278E+01  0.2501E+02
   5.165  0.1282E+01  0.2502E+02
   5.175  0.1287E+01  0.2504E+02
   5.185  0.1292E+01  0.2505E+02
   5.195  0.1297E+01  0.2506E+02
   5.205  0.1302E+01  0.2508E+02
   5.215  0.1306E+01  0.2509E+02
   5.225  0.1311E+01  0.2510E+02
   5.235  0.1315E+01  0.2512E+02
   5.245  0.1320E+01  0.2513E+02
   5.255  0.1324E+01  0.2514E+02
   5.265  0.1328E+01  0.2515E+02
   5.275  0.1332E+01  0.2517E+02
   5.285  0.1336E+01  0.2518E+02
   5.295  0.1340E+01  0.2520E+02
   5.305  0.1344E+01  0.2521E+02
   5.315  0.1348E+01  0.2522E+02
   5.325  0.1352E+01  0.2524E+02
   5.335  0.1356E+01  0.2525E+02
   5.345  0.1359E+01  0.2526E+02
   5.355  0.1363E+01  0.2528E+02
   5.365  0.1366E+01  0.2529E+02
   5.375  0.1369E+01  0.2530E+02
   5.385  0.1373E+01  0.2532E+02
   5.395  0.1376E+01  0.2533E+02
   5.405  0.1379E+01  0.2534E+02
   5.415  0.1382E+01  0.2536E+02
   5.425  0.1385E+01  0.2537E+02
   5.435  0.1388E+01  0.2539E+02
   5.445  0.1391E+01  0.2540E+02
   5.455  0.1393E+01  0.2541E+02
   5.465  0.1396E+01  0.2543E+02
   5.475  0.1398E+01  0.2544E+02
   5.485  0.1401E+01  0.2546E+02
   5.495  0.1403E+01  0.2547E+02
   5.505  0.1406E+01  0.2548E+02
   5.515  0.1408E+01  0.2550E+02
   5.525  0.1410E+01  0.2551E+02
   5.535  0.1412E+01  0.2553E+02
   5.545  0.1414E+01  0.2554E+02
   5.555  0.1416E+01  0.2555E+02
   5.565  0.1417E+01  0.2557E+02
   5.575  0.1419E+01  0.2558E+02
   5.585  0.1420E+01  0.2560E+02
   5.595  0.1422E+01  0.2561E+02
   5.605  0.1423E+01  0.2563E+02
   5.615  0.1425E+01  0.2564E+02
   5.625  0.1426E+01  0.2565E+02
   5.635  0.1427E+01  0.2567E+02
   5.645  0.1428E+01  0.2568E+02
   5.655  0.1429E+01  0.2570E+02
   5.665  0.1430E+01  0.2571E+02
   5.675  0.1430E+01  0.2573E+02
   5.685  0.1431E+01  0.2574E+02
   5.695  0.1432E+01  0.2575E+02
   5.705  0.1432E+01  0.2577E+02
   5.715  0.1432E+01  0.2578E+02
   5.725  0.1433E+01  0.2580E+02
   5.735  0.1433E+01  0.2581E+02
   5.745  0.1433E+01  0.2583E+02
   5.755  0.1433E+01  0.2584E+02
   5.765  0.1433E+01  0.2585E+02
   5.775  0.1433E+01  0.2587E+02
   5.785  0.1433E+01  0.2588E+02
   5.795  0.1432E+01  0.2590E+02
   5.805  0.1432E+01  0.2591E+02
   5.815  0.1431E+01  0.2593E+02
   5.825  0.1431E+01  0.2594E+02
   5.835  0.1430E+01  0.2596E+02
   5.845  0.1429E+01  0.2597E+02
   5.855  0.1428E+01  0.2598E+02
   5.865  0.1427E+01  0.2600E+02
   5.875  0.1426E+01  0.2601E+02
   5.885  0.1425E+01  0.2603E+02
   5.895  0.1424E+01  0.2604E+02
   5.905  0.1423E+01  0.2605E+02
   5.915  0.1421E+01  0.2607E+02
   5.925  0.1420E+01  0.2608E+02
   5.935  0.1418E+01  0.2610E+02
   5.945  0.1416E+01  0.2611E+02
   5.955  0.1415E+01  0.2613E+02
   5.965  0.1413E+01  0.2614E+02
   5.975  0.1411E+01  0.2615E+02
   5.985  0.1409E+01  0.2617E+02
   5.995  0.1407E+01  0.2618E+02
   6.005  0.1405E+01  0.2620E+02
   6.015  0.1402E+01  0.2621E+02
   6.025  0.1400E+01  0.2622E+02
   6.035  0.1398E+01  0.2624E+02
   6.045  0.1395E+01  0.2625E+02
   6.055  0.1393E+01  0.2627E+02
   6.065  0.1390E+01  0.2628E+02
   6.075  0.1387E+01  0.2629E+02
   6.085  0.1384E+01  0.2631E+02
   6.095  0.1381E+01  0.2632E+02
   6.105  0.1378E+01  0.2634E+02
   6.115  0.1375E+01  0.2635E+02
   6.125  0.1372E+01  0.2636E+02
   6.135  0.1369E+01  0.2638E+02
   6.145  0.1366E+01  0.2639E+02
   6.155  0.1362E+01  0.2640E+02
   6.165  0.1359E+01  0.2642E+02
   6.175  0.1355E+01  0.2643E+02
   6.185  0.1352E+01  0.2644E+02
   6.195  0.1348E+01  0.2646E+02
   6.205  0.1344E+01  0.2647E+02
   6.215  0.1340E+01  0.2648E+02
   6.225  0.1336E+01  0.2650E+02
   6.235  0.1332E+01  0.2651E+02
   6.245  0.1328E+01  0.2652E+02
   6.255  0.1324E+01  0.2654E+02
   6.265  0.1320E+01  0.2655E+02
   6.275  0.1316E+01  0.2656E+02
   6.285  0.1312E+01  0.2658E+02
   6.295  0.1307E+01  0.2659E+02
   6.305  0.1303E+01  0.2660E+02
   6.315  0.1298E+01  0.2662E+02
   6.325  0.1294E+01  0.2663E+02
   6.335  0.1289E+01  0.2664E+02
   6.345  0.1284E+01  0.2666E+02
   6.355  0.1280E+01  0.2667E+02
   6.365  0.1275E+01  0.2668E+02
   6.375  0.1270E+01  0.2669E+02
   6.385  0.1265E+01  0.2671E+02
   6.395  0.1260E+01  0.2672E+02
   6.405  0.1255E+01  0.2673E+02
   6.415  0.1250E+01  0.2674E+02
   6.425  0.1244E+01  0.2676E+02
   6.435  0.1239E+01  0.2677E+02
   6.445  0.1234E+01  0.2678E+02
   6.455  0.1229E+01  0.2679E+02
   6.465  0.1223E+01  0.2681E+02
   6.475  0.1218E+01  0.2682E+02
   6.485  0.1212E+01  0.2683E+02
   6.495  0.1207E+01  0.2684E+02
   6.505  0.1201E+01  0.2685E+02
   6.515  0.1196E+01  0.2687E+02
   6.525  0.1190E+01  0.2688E+02
   6.535  0.1184E+01  0.2689E+02
   6.545  0.1178E+01  0.2690E+02
   6.555  0.1173E+01  0.2691E+02
   6.565  0.1167E+01  0.2692E+02
   6.575  0.1161E+01  0.2694E+02
   6.585  0.1155E+01  0.2695E+02
   6.595  0.1149E+01  0.2696E+02
   6.605  0.1143E+01  0.2697E+02
   6.615  0.1137E+01  0.2698E+02
   6.625  0.1131E+01  0.2699E+02
   6.635  0.1125E+01  0.2700E+02
   6.645  0.1119E+01  0.2702E+02
   6.655  0.1112E+01  0.2703E+02
   6.665  0.1106E+01  0.2704E+02
   6.675  0.1100E+01  0.2705E+02
   6.685  0.1094E+01  0.2706E+02
   6.695  0.1087E+01  0.2707E+02
   6.705  0.1081E+01  0.2708E+02
   6.715  0.1075E+01  0.2709E+02
   6.725  0.1068E+01  0.2710E+02
   6.735  0.1062E+01  0.2711E+02
   6.745  0.1056E+01  0.2712E+02
   6.755  0.1049E+01  0.2713E+02
   6.765  0.1043E+01  0.2715E+02
   6.775  0.1036E+01  0.2716E+02
   6.785  0.1030E+01  0.2717E+02
   6.795  0.1023E+01  0.2718E+02
   6.805  0.1017E+01  0.2719E+02
   6.815  0.1010E+01  0.2720E+02
   6.825  0.1004E+01  0.2721E+02
   6.835  0.9975E+00  0.2722E+02
   6.845  0.9910E+00  0.2723E+02
   6.855  0.9844E+00  0.2724E+02
   6.865  0.9779E+00  0.2725E+02
   6.875  0.9714E+00  0.2726E+02
   6.885  0.9649E+00  0.2727E+02
   6.895  0.9583E+00  0.2727E+02
   6.905  0.9518E+00  0.2728E+02
   6.915  0.9453E+00  0.2729E+02
   6.925  0.9388E+00  0.2730E+02
   6.935  0.9323E+00  0.2731E+02
   6.945  0.9258E+00  0.2732E+02
   6.955  0.9193E+00  0.2733E+02
   6.965  0.9128E+00  0.2734E+02
   6.975  0.9063E+00  0.2735E+02
   6.985  0.8998E+00  0.2736E+02
   6.995  0.8934E+00  0.2737E+02
   7.005  0.8870E+00  0.2738E+02
   7.015  0.8806E+00  0.2738E+02
   7.025  0.8742E+00  0.2739E+02
   7.035  0.8678E+00  0.2740E+02
   7.045  0.8614E+00  0.2741E+02
   7.055  0.8551E+00  0.2742E+02
   7.065  0.8488E+00  0.2743E+02
   7.075  0.8425E+00  0.2744E+02
   7.085  0.8363E+00  0.2744E+02
   7.095  0.8300E+00  0.2745E+02
   7.105  0.8238E+00  0.2746E+02
   7.115  0.8177E+00  0.2747E+02
   7.125  0.8115E+00  0.2748E+02
   7.135  0.8054E+00  0.2749E+02
   7.145  0.7994E+00  0.2749E+02
   7.155  0.7933E+00  0.2750E+02
   7.165  0.7874E+00  0.2751E+02
   7.175  0.7814E+00  0.2752E+02
   7.185  0.7755E+00  0.2752E+02
   7.195  0.7696E+00  0.2753E+02
   7.205  0.7638E+00  0.2754E+02
   7.215  0.7580E+00  0.2755E+02
   7.225  0.7523E+00  0.2756E+02
   7.235  0.7466E+00  0.2756E+02
   7.245  0.7410E+00  0.2757E+02
   7.255  0.7354E+00  0.2758E+02
   7.265  0.7299E+00  0.2758E+02
   7.275  0.7244E+00  0.2759E+02
   7.285  0.7190E+00  0.2760E+02
   7.295  0.7136E+00  0.2761E+02
   7.305  0.7083E+00  0.2761E+02
   7.315  0.7031E+00  0.2762E+02
   7.325  0.6979E+00  0.2763E+02
   7.335  0.6927E+00  0.2763E+02
   7.345  0.6877E+00  0.2764E+02
   7.355  0.6827E+00  0.2765E+02
   7.365  0.6777E+00  0.2765E+02
   7.375  0.6729E+00  0.2766E+02
   7.385  0.6680E+00  0.2767E+02
   7.395  0.6633E+00  0.2767E+02
   7.405  0.6586E+00  0.2768E+02
   7.415  0.6540E+00  0.2769E+02
   7.425  0.6495E+00  0.2769E+02
   7.435  0.6451E+00  0.2770E+02
   7.445  0.6407E+00  0.2771E+02
   7.455  0.6364E+00  0.2771E+02
   7.465  0.6322E+00  0.2772E+02
   7.475  0.6280E+00  0.2773E+02
   7.485  0.6239E+00  0.2773E+02
   7.495  0.6199E+00  0.2774E+02
   7.505  0.6160E+00  0.2774E+02
   7.515  0.6122E+00  0.2775E+02
   7.525  0.6085E+00  0.2776E+02
   7.535  0.6048E+00  0.2776E+02
   7.545  0.6012E+00  0.2777E+02
   7.555  0.5977E+00  0.2778E+02
   7.565  0.5943E+00  0.2778E+02
   7.575  0.5910E+00  0.2779E+02
   7.585  0.5878E+00  0.2779E+02
   7.595  0.5847E+00  0.2780E+02
   7.605  0.5816E+00  0.2780E+02
   7.615  0.5787E+00  0.2781E+02
   7.625  0.5758E+00  0.2782E+02
   7.635  0.5730E+00  0.2782E+02
   7.645  0.5703E+00  0.2783E+02
   7.655  0.5678E+00  0.2783E+02
   7.665  0.5653E+00  0.2784E+02
   7.675  0.5629E+00  0.2784E+02
   7.685  0.5606E+00  0.2785E+02
   7.695  0.5584E+00  0.2786E+02
   7.705  0.5563E+00  0.2786E+02
   7.715  0.5543E+00  0.2787E+02
   7.725  0.5524E+00  0.2787E+02
   7.735  0.5506E+00  0.2788E+02
   7.745  0.5489E+00  0.2788E+02
   7.755  0.5473E+00  0.2789E+02
   7.765  0.5458E+00  0.2789E+02
   7.775  0.5444E+00  0.2790E+02
   7.785  0.5431E+00  0.2791E+02
   7.795  0.5419E+00  0.2791E+02
   7.805  0.5408E+00  0.2792E+02
   7.815  0.5398E+00  0.2792E+02
   7.825  0.5389E+00  0.2793E+02
   7.835  0.5381E+00  0.2793E+02
   7.845  0.5374E+00  0.2794E+02
   7.855  0.5369E+00  0.2794E+02
   7.865  0.5364E+00  0.2795E+02
   7.875  0.5360E+00  0.2795E+02
   7.885  0.5358E+00  0.2796E+02
   7.895  0.5356E+00  0.2796E+02
   7.905  0.5356E+00  0.2797E+02
   7.915  0.5356E+00  0.2798E+02
   7.925  0.5358E+00  0.2798E+02
   7.935  0.5361E+00  0.2799E+02
   7.945  0.5364E+00  0.2799E+02
   7.955  0.5369E+00  0.2800E+02
   7.965  0.5375E+00  0.2800E+02
   7.975  0.5382E+00  0.2801E+02
   7.985  0.5390E+00  0.2801E+02
   7.995  0.5399E+00  0.2802E+02
   8.005  0.5409E+00  0.2802E+02
   8.015  0.5420E+00  0.2803E+02
   8.025  0.5432E+00  0.2803E+02
   8.035  0.5445E+00  0.2804E+02
   8.045  0.5459E+00  0.2805E+02
   8.055  0.5475E+00  0.2805E+02
   8.065  0.5491E+00  0.2806E+02
   8.075  0.5508E+00  0.2806E+02
   8.085  0.5526E+00  0.2807E+02
   8.095  0.5546E+00  0.2807E+02
   8.105  0.5566E+00  0.2808E+02
   8.115  0.5587E+00  0.2808E+02
   8.125  0.5609E+00  0.2809E+02
   8.135  0.5633E+00  0.2810E+02
   8.145  0.5657E+00  0.2810E+02
   8.155  0.5682E+00  0.2811E+02
   8.165  0.5708E+00  0.2811E+02
   8.175  0.5736E+00  0.2812E+02
   8.185  0.5764E+00  0.2812E+02
   8.195  0.5793E+00  0.2813E+02
   8.205  0.5823E+00  0.2814E+02
   8.215  0.5854E+00  0.2814E+02
   8.225  0.5886E+00  0.2815E+02
   8.235  0.5919E+00  0.2815E+02
   8.245  0.5952E+00  0.2816E+02
   8.255  0.5987E+00  0.2816E+02
   8.265  0.6022E+00  0.2817E+02
   8.275  0.6059E+00  0.2818E+02
   8.285  0.6096E+00  0.2818E+02
   8.295  0.6134E+00  0.2819E+02
   8.305  0.6173E+00  0.2820E+02
   8.315  0.6213E+00  0.2820E+02
   8.325  0.6253E+00  0.2821E+02
   8.335  0.6294E+00  0.2821E+02
   8.345  0.6337E+00  0.2822E+02
   8.355  0.6379E+00  0.2823E+02
   8.365  0.6423E+00  0.2823E+02
   8.375  0.6468E+00  0.2824E+02
   8.385  0.6513E+00  0.2825E+02
   8.395  0.6559E+00  0.2825E+02
   8.405  0.6605E+00  0.2826E+02
   8.415  0.6653E+00  0.2827E+02
   8.425  0.6701E+00  0.2827E+02
   8.435  0.6749E+00  0.2828E+02
   8.445  0.6799E+00  0.2829E+02
   8.455  0.6849E+00  0.2829E+02
   8.465  0.6899E+00  0.2830E+02
   8.475  0.6950E+00  0.2831E+02
   8.485  0.7002E+00  0.2831E+02
   8.495  0.7055E+00  0.2832E+02
   8.505  0.7108E+00  0.2833E+02
   8.515  0.7161E+00  0.2834E+02
   8.525  0.7215E+00  0.2834E+02
   8.535  0.7270E+00  0.2835E+02
   8.545  0.7325E+00  0.2836E+02
   8.555  0.7380E+00  0.2836E+02
   8.565  0.7436E+00  0.2837E+02
   8.575  0.7493E+00  0.2838E+02
   8.585  0.7550E+00  0.2839E+02
   8.595  0.7607E+00  0.2839E+02
   8.605  0.7665E+00  0.2840E+02
   8.615  0.7723E+00  0.2841E+02
   8.625  0.7781E+00  0.2842E+02
   8.635  0.7840E+00  0.2843E+02
   8.645  0.7899E+00  0.2843E+02
   8.655  0.7958E+00  0.2844E+02
   8.665  0.8018E+00  0.2845E+02
   8.675  0.8078E+00  0.2846E+02
   8.685  0.8138E+00  0.2847E+02
   8.695  0.8199E+00  0.2847E+02
   8.705  0.8259E+00  0.2848E+02
   8.715  0.8320E+00  0.2849E+02
   8.725  0.8381E+00  0.2850E+02
   8.735  0.8443E+00  0.2851E+02
   8.745  0.8504E+00  0.2852E+02
   8.755  0.8566E+00  0.2852E+02
   8.765  0.8627E+00  0.2853E+02
   8.775  0.8689E+00  0.2854E+02
   8.785  0.8751E+00  0.2855E+02
   8.795  0.8813E+00  0.2856E+02
   8.805  0.8875E+00  0.2857E+02
   8.815  0.8937E+00  0.2858E+02
   8.825  0.8999E+00  0.2859E+02
   8.835  0.9061E+00  0.2860E+02
   8.845  0.9123E+00  0.2860E+02
   8.855  0.9185E+00  0.2861E+02
   8.865  0.9246E+00  0.2862E+02
   8.875  0.9308E+00  0.2863E+02
   8.885  0.9370E+00  0.2864E+02
   8.895  0.9432E+00  0.2865E+02
   8.905  0.9493E+00  0.2866E+02
   8.915  0.9554E+00  0.2867E+02
   8.925  0.9615E+00  0.2868E+02
   8.935  0.9676E+00  0.2869E+02
   8.945  0.9737E+00  0.2870E+02
   8.955  0.9798E+00  0.2871E+02
   8.965  0.9858E+00  0.2872E+02
   8.975  0.9918E+00  0.2873E+02
   8.985  0.9978E+00  0.2874E+02
   8.995  0.1004E+01  0.2875E+02
   9.005  0.1010E+01  0.2876E+02
   9.015  0.1016E+01  0.2877E+02
   9.025  0.1022E+01  0.2878E+02
   9.035  0.1027E+01  0.2879E+02
   9.045  0.1033E+01  0.2880E+02
   9.055  0.1039E+01  0.2881E+02
   9.065  0.1045E+01  0.2882E+02
   9.075  0.1050E+01  0.2883E+02
   9.085  0.1056E+01  0.2884E+02
   9.095  0.1062E+01  0.2885E+02
   9.105  0.1067E+01  0.2886E+02
   9.115  0.1073E+01  0.2887E+02
   9.125  0.1078E+01  0.2888E+02
   9.135  0.1084E+01  0.2890E+02
   9.145  0.1089E+01  0.2891E+02
   9.155  0.1095E+01  0.2892E+02
   9.165  0.1100E+01  0.2893E+02
   9.175  0.1105E+01  0.2894E+02
   9.185  0.1110E+01  0.2895E+02
   9.195  0.1116E+01  0.2896E+02
   9.205  0.1121E+01  0.2897E+02
   9.215  0.1126E+01  0.2898E+02
   9.225  0.1131E+01  0.2900E+02
   9.235  0.1136E+01  0.2901E+02
   9.245  0.1141E+01  0.2902E+02
   9.255  0.1146E+01  0.2903E+02
   9.265  0.1150E+01  0.2904E+02
   9.275  0.1155E+01  0.2905E+02
   9.285  0.1160E+01  0.2906E+02
   9.295  0.1164E+01  0.2908E+02
   9.305  0.1169E+01  0.2909E+02
   9.315  0.1174E+01  0.2910E+02
   9.325  0.1178E+01  0.2911E+02
   9.335  0.1182E+01  0.2912E+02
   9.345  0.1187E+01  0.2913E+02
   9.355  0.1191E+01  0.2915E+02
   9.365  0.1195E+01  0.2916E+02
   9.375  0.1199E+01  0.2917E+02
   9.385  0.1204E+01  0.2918E+02
   9.395  0.1208E+01  0.2919E+02
   9.405  0.1212E+01  0.2921E+02
   9.415  0.1216E+01  0.2922E+02
   9.425  0.1219E+01  0.2923E+02
   9.435  0.1223E+01  0.2924E+02
   9.445  0.1227E+01  0.2926E+02
   9.455  0.1231E+01  0.2927E+02
   9.465  0.1234E+01  0.2928E+02
   9.475  0.1238E+01  0.2929E+02
   9.485  0.1241E+01  0.2930E+02
   9.495  0.1245E+01  0.2932E+02
   9.505  0.1248E+01  0.2933E+02
   9.515  0.1252E+01  0.2934E+02
   9.525  0.1255E+01  0.2935E+02
   9.535  0.1258E+01  0.2937E+02
   9.545  0.1261E+01  0.2938E+02
   9.555  0.1264E+01  0.2939E+02
   9.565  0.1268E+01  0.2941E+02
   9.575  0.1271E+01  0.2942E+02
   9.585  0.1273E+01  0.2943E+02
   9.595  0.1276E+01  0.2944E+02
   9.605  0.1279E+01  0.2946E+02
   9.615  0.1282E+01  0.2947E+02
   9.625  0.1285E+01  0.2948E+02
   9.635  0.1287E+01  0.2949E+02
   9.645  0.1290E+01  0.2951E+02
   9.655  0.1293E+01  0.2952E+02
   9.665  0.1295E+01  0.2953E+02
   9.675  0.1298E+01  0.2955E+02
   9.685  0.1300E+01  0.2956E+02
   9.695  0.1302E+01  0.2957E+02
   9.705  0.1305E+01  0.2959E+02
   9.715  0.1307E+01  0.2960E+02
   9.725  0.1309E+01  0.2961E+02
   9.735  0.1311E+01  0.2962E+02
   9.745  0.1313E+01  0.2964E+02
   9.755  0.1315E+01  0.2965E+02
   9.765  0.1318E+01  0.2966E+02
   9.775  0.1320E+01  0.2968E+02
   9.785  0.1321E+01  0.2969E+02
   9.795  0.1323E+01  0.2970E+02
   9.805  0.1325E+01  0.2972E+02
   9.815  0.1327E+01  0.2973E+02
   9.825  0.1329E+01  0.2974E+02
   9.835  0.1331E+01  0.2976E+02
   9.845  0.1332E+01  0.2977E+02
   9.855  0.1334E+01  0.2978E+02
   9.865  0.1336E+01  0.2980E+02
   9.875  0.1337E+01  0.2981E+02
   9.885  0.1339E+01  0.2982E+02
   9.895  0.1340E+01  0.2984E+02
   9.905  0.1342E+01  0.2985E+02
   9.915  0.1343E+01  0.2986E+02
   9.925  0.1345E+01  0.2988E+02
   9.935  0.1346E+01  0.2989E+02
   9.945  0.1348E+01  0.2990E+02
   9.955  0.1349E+01  0.2992E+02
   9.965  0.1350E+01  0.2993E+02
   9.975  0.1352E+01  0.2995E+02
   9.985  0.1353E+01  0.2996E+02
   9.995  0.1354E+01  0.2997E+02
  10.005  0.1356E+01  0.2999E+02
  10.015  0.1357E+01  0.3000E+02
  10.025  0.1358E+01  0.3001E+02
  10.035  0.1359E+01  0.3003E+02
  10.045  0.1360E+01  0.3004E+02
  10.055  0.1361E+01  0.3005E+02
  10.065  0.1363E+01  0.3007E+02
  10.075  0.1364E+01  0.3008E+02
  10.085  0.1365E+01  0.3009E+02
  10.095  0.1366E+01  0.3011E+02
  10.105  0.1367E+01  0.3012E+02
  10.115  0.1368E+01  0.3014E+02
  10.125  0.1369E+01  0.3015E+02
  10.135  0.1370E+01  0.3016E+02
  10.145  0.1371E+01  0.3018E+02
  10.155  0.1372E+01  0.3019E+02
  10.165  0.1373E+01  0.3020E+02
  10.175  0.1374E+01  0.3022E+02
  10.185  0.1375E+01  0.3023E+02
  10.195  0.1376E+01  0.3025E+02
  10.205  0.1377E+01  0.3026E+02
  10.215  0.1378E+01  0.3027E+02
  10.225  0.1379E+01  0.3029E+02
  10.235  0.1380E+01  0.3030E+02
  10.245  0.1381E+01  0.3031E+02
  10.255  0.1382E+01  0.3033E+02
  10.265  0.1383E+01  0.3034E+02
  10.275  0.1384E+01  0.3036E+02
  10.285  0.1385E+01  0.3037E+02
  10.295  0.1386E+01  0.3038E+02
  10.305  0.1387E+01  0.3040E+02
  10.315  0.1388E+01  0.3041E+02
  10.325  0.1389E+01  0.3043E+02
  10.335  0.1390E+01  0.3044E+02
  10.345  0.1391E+01  0.3045E+02
  10.355  0.1392E+01  0.3047E+02
  10.365  0.1393E+01  0.3048E+02
  10.375  0.1394E+01  0.3049E+02
  10.385  0.1395E+01  0.3051E+02
  10.395  0.1396E+01  0.3052E+02
  10.405  0.1397E+01  0.3054E+02
  10.415  0.1398E+01  0.3055E+02
  10.425  0.1399E+01  0.3056E+02
  10.435  0.1400E+01  0.3058E+02
  10.445  0.1401E+01  0.3059E+02
  10.455  0.1402E+01  0.3061E+02
  10.465  0.1403E+01  0.3062E+02
  10.475  0.1404E+01  0.3063E+02
  10.485  0.1406E+01  0.3065E+02
  10.495  0.1407E+01  0.3066E+02
  10.505  0.1408E+01  0.3068E+02
  10.515  0.1409E+01  0.3069E+02
  10.525  0.1410E+01  0.3071E+02
  10.535  0.1411E+01  0.3072E+02
  10.545  0.1412E+01  0.3073E+02
  10.555  0.1413E+01  0.3075E+02
  10.565  0.1414E+01  0.3076E+02
  10.575  0.1415E+01  0.3078E+02
  10.585  0.1417E+01  0.3079E+02
  10.595  0.1418E+01  0.3080E+02
  10.605  0.1419E+01  0.3082E+02
  10.615  0.1420E+01  0.3083E+02
  10.625  0.1421E+01  0.3085E+02
  10.635  0.1422E+01  0.3086E+02
  10.645  0.1424E+01  0.3088E+02
  10.655  0.1425E+01  0.3089E+02
  10.665  0.1426E+01  0.3090E+02
  10.675  0.1427E+01  0.3092E+02
  10.685  0.1428E+01  0.3093E+02
  10.695  0.1430E+01  0.3095E+02
  10.705  0.1431E+01  0.3096E+02
  10.715  0.1432E+01  0.3098E+02
  10.725  0.1433E+01  0.3099E+02
  10.735  0.1435E+01  0.3100E+02
  10.745  0.1436E+01  0.3102E+02
  10.755  0.1437E+01  0.3103E+02
  10.765  0.1438E+01  0.3105E+02
  10.775  0.1440E+01  0.3106E+02
  10.785  0.1441E+01  0.3108E+02
  10.795  0.1442E+01  0.3109E+02
  10.805  0.1444E+01  0.3110E+02
  10.815  0.1445E+01  0.3112E+02
  10.825  0.1446E+01  0.3113E+02
  10.835  0.1448E+01  0.3115E+02
  10.845  0.1449E+01  0.3116E+02
  10.855  0.1450E+01  0.3118E+02
  10.865  0.1451E+01  0.3119E+02
  10.875  0.1453E+01  0.3121E+02
  10.885  0.1454E+01  0.3122E+02
  10.895  0.1455E+01  0.3124E+02
  10.905  0.1457E+01  0.3125E+02
  10.915  0.1458E+01  0.3126E+02
  10.925  0.1459E+01  0.3128E+02
  10.935  0.1461E+01  0.3129E+02
  10.945  0.1462E+01  0.3131E+02
  10.955  0.1463E+01  0.3132E+02
  10.965  0.1465E+01  0.3134E+02
  10.975  0.1466E+01  0.3135E+02
  10.985  0.1467E+01  0.3137E+02
  10.995  0.1468E+01  0.3138E+02
  11.005  0.1470E+01  0.3140E+02
  11.015  0.1471E+01  0.3141E+02
  11.025  0.1472E+01  0.3143E+02
  11.035  0.1474E+01  0.3144E+02
  11.045  0.1475E+01  0.3146E+02
  11.055  0.1476E+01  0.3147E+02
  11.065  0.1478E+01  0.3148E+02
  11.075  0.1479E+01  0.3150E+02
  11.085  0.1480E+01  0.3151E+02
  11.095  0.1481E+01  0.3153E+02
  11.105  0.1483E+01  0.3154E+02
  11.115  0.1484E+01  0.3156E+02
  11.125  0.1485E+01  0.3157E+02
  11.135  0.1486E+01  0.3159E+02
  11.145  0.1488E+01  0.3160E+02
  11.155  0.1489E+01  0.3162E+02
  11.165  0.1490E+01  0.3163E+02
  11.175  0.1491E+01  0.3165E+02
  11.185  0.1492E+01  0.3166E+02
  11.195  0.1493E+01  0.3168E+02
  11.205  0.1495E+01  0.3169E+02
  11.215  0.1496E+01  0.3171E+02
  11.225  0.1497E+01  0.3172E+02
  11.235  0.1498E+01  0.3174E+02
  11.245  0.1499E+01  0.3175E+02
  11.255  0.1500E+01  0.3177E+02
  11.265  0.1501E+01  0.3178E+02
  11.275  0.1502E+01  0.3180E+02
  11.285  0.1504E+01  0.3181E+02
  11.295  0.1505E+01  0.3183E+02
  11.305  0.1506E+01  0.3184E+02
  11.315  0.1507E+01  0.3186E+02
  11.325  0.1508E+01  0.3187E+02
  11.335  0.1509E+01  0.3189E+02
  11.345  0.1510E+01  0.3190E+02
  11.355  0.1511E+01  0.3192E+02
  11.365  0.1511E+01  0.3193E+02
  11.375  0.1512E+01  0.3195E+02
  11.385  0.1513E+01  0.3196E+02
  11.395  0.1514E+01  0.3198E+02
  11.405  0.1515E+01  0.3199E+02
  11.415  0.1516E+01  0.3201E+02
  11.425  0.1517E+01  0.3202E+02
  11.435  0.1517E+01  0.3204E+02
  11.445  0.1518E+01  0.3205E+02
  11.455  0.1519E+01  0.3207E+02
  11.465  0.1520E+01  0.3209E+02
  11.475  0.1521E+01  0.3210E+02
  11.485  0.1521E+01  0.3212E+02
  11.495  0.1522E+01  0.3213E+02
  11.505  0.1523E+01  0.3215E+02
  11.515  0.1523E+01  0.3216E+02
  11.525  0.1524E+01  0.3218E+02
  11.535  0.1524E+01  0.3219E+02
  11.545  0.1525E+01  0.3221E+02
  11.555  0.1526E+01  0.3222E+02
  11.565  0.1526E+01  0.3224E+02
  11.575  0.1527E+01  0.3225E+02
  11.585  0.1527E+01  0.3227E+02
  11.595  0.1528E+01  0.3228E+02
  11.605  0.1528E+01  0.3230E+02
  11.615  0.1528E+01  0.3231E+02
  11.625  0.1529E+01  0.3233E+02
  11.635  0.1529E+01  0.3234E+02
  11.645  0.1530E+01  0.3236E+02
  11.655  0.1530E+01  0.3238E+02
  11.665  0.1530E+01  0.3239E+02
  11.675  0.1530E+01  0.3241E+02
  11.685  0.1531E+01  0.3242E+02
  11.695  0.1531E+01  0.3244E+02
  11.705  0.1531E+01  0.3245E+02
  11.715  0.1531E+01  0.3247E+02
  11.725  0.1531E+01  0.3248E+02
  11.735  0.1532E+01  0.3250E+02
  11.745  0.1532E+01  0.3251E+02
  11.755  0.1532E+01  0.3253E+02
  11.765  0.1532E+01  0.3254E+02
  11.775  0.1532E+01  0.3256E+02
  11.785  0.1532E+01  0.3257E+02
  11.795  0.1532E+01  0.3259E+02
  11.805  0.1532E+01  0.3260E+02
  11.815  0.1532E+01  0.3262E+02
  11.825  0.1532E+01  0.3264E+02
  11.835  0.1531E+01  0.3265E+02
  11.845  0.1531E+01  0.3267E+02
  11.855  0.1531E+01  0.3268E+02
  11.865  0.1531E+01  0.3270E+02
  11.875  0.1531E+01  0.3271E+02
  11.885  0.1530E+01  0.3273E+02
  11.895  0.1530E+01  0.3274E+02
  11.905  0.1530E+01  0.3276E+02
  11.915  0.1529E+01  0.3277E+02
  11.925  0.1529E+01  0.3279E+02
  11.935  0.1529E+01  0.3280E+02
  11.945  0.1528E+01  0.3282E+02
  11.955  0.1528E+01  0.3283E+02
  11.965  0.1527E+01  0.3285E+02
  11.975  0.1527E+01  0.3286E+02
  11.985  0.1526E+01  0.3288E+02
  11.995  0.1526E+01  0.3290E+02
  12.005  0.1525E+01  0.3291E+02
  12.015  0.1524E+01  0.3293E+02
  12.025  0.1524E+01  0.3294E+02
  12.035  0.1523E+01  0.3296E+02
  12.045  0.1522E+01  0.3297E+02
  12.055  0.1522E+01  0.3299E+02
  12.065  0.1521E+01  0.3300E+02
  12.075  0.1520E+01  0.3302E+02
  12.085  0.1519E+01  0.3303E+02
  12.095  0.1519E+01  0.3305E+02
  12.105  0.1518E+01  0.3306E+02
  12.115  0.1517E+01  0.3308E+02
  12.125  0.1516E+01  0.3309E+02
  12.135  0.1515E+01  0.3311E+02
  12.145  0.1514E+01  0.3312E+02
  12.155  0.1513E+01  0.3314E+02
  12.165  0.1512E+01  0.3315E+02
  12.175  0.1511E+01  0.3317E+02
  12.185  0.1510E+01  0.3318E+02
  12.195  0.1509E+01  0.3320E+02
  12.205  0.1508E+01  0.3321E+02
  12.215  0.1507E+01  0.3323E+02
  12.225  0.1506E+01  0.3324E+02
  12.235  0.1505E+01  0.3326E+02
  12.245  0.1504E+01  0.3327E+02
  12.255  0.1502E+01  0.3329E+02
  12.265  0.1501E+01  0.3330E+02
  12.275  0.1500E+01  0.3332E+02
  12.285  0.1499E+01  0.3333E+02
  12.295  0.1497E+01  0.3335E+02
  12.305  0.1496E+01  0.3336E+02
  12.315  0.1495E+01  0.3338E+02
  12.325  0.1494E+01  0.3339E+02
  12.335  0.1492E+01  0.3341E+02
  12.345  0.1491E+01  0.3342E+02
  12.355  0.1489E+01  0.3344E+02
  12.365  0.1488E+01  0.3345E+02
  12.375  0.1487E+01  0.3347E+02
  12.385  0.1485E+01  0.3348E+02
  12.395  0.1484E+01  0.3350E+02
  12.405  0.1482E+01  0.3351E+02
  12.415  0.1481E+01  0.3353E+02
  12.425  0.1479E+01  0.3354E+02
  12.435  0.1478E+01  0.3356E+02
  12.445  0.1476E+01  0.3357E+02
  12.455  0.1475E+01  0.3359E+02
  12.465  0.1473E+01  0.3360E+02
  12.475  0.1472E+01  0.3362E+02
  12.485  0.1470E+01  0.3363E+02
  12.495  0.1469E+01  0.3365E+02
  12.505  0.1467E+01  0.3366E+02
  12.515  0.1466E+01  0.3368E+02
  12.525  0.1464E+01  0.3369E+02
  12.535  0.1462E+01  0.3370E+02
  12.545  0.1461E+01  0.3372E+02
  12.555  0.1459E+01  0.3373E+02
  12.565  0.1457E+01  0.3375E+02
  12.575  0.1456E+01  0.3376E+02
  12.585  0.1454E+01  0.3378E+02
  12.595  0.1453E+01  0.3379E+02
  12.605  0.1451E+01  0.3381E+02
  12.615  0.1449E+01  0.3382E+02
  12.625  0.1448E+01  0.3384E+02
  12.635  0.1446E+01  0.3385E+02
  12.645  0.1444E+01  0.3386E+02
  12.655  0.1443E+01  0.3388E+02
  12.665  0.1441E+01  0.3389E+02
  12.675  0.1439E+01  0.3391E+02
  12.685  0.1438E+01  0.3392E+02
  12.695  0.1436E+01  0.3394E+02
  12.705  0.1434E+01  0.3395E+02
  12.715  0.1432E+01  0.3396E+02
  12.725  0.1431E+01  0.3398E+02
  12.735  0.1429E+01  0.3399E+02
  12.745  0.1427E+01  0.3401E+02
  12.755  0.1426E+01  0.3402E+02
  12.765  0.1424E+01  0.3404E+02
  12.775  0.1422E+01  0.3405E+02
  12.785  0.1421E+01  0.3406E+02
  12.795  0.1419E+01  0.3408E+02
  12.805  0.1417E+01  0.3409E+02
  12.815  0.1416E+01  0.3411E+02
  12.825  0.1414E+01  0.3412E+02
  12.835  0.1413E+01  0.3414E+02
  12.845  0.1411E+01  0.3415E+02
  12.855  0.1409E+01  0.3416E+02
  12.865  0.1408E+01  0.3418E+02
  12.875  0.1406E+01  0.3419E+02
  12.885  0.1405E+01  0.3421E+02
  12.895  0.1403E+01  0.3422E+02
  12.905  0.1401E+01  0.3423E+02
  12.915  0.1400E+01  0.3425E+02
  12.925  0.1398E+01  0.3426E+02
  12.935  0.1397E+01  0.3428E+02
  12.945  0.1395E+01  0.3429E+02
  12.955  0.1394E+01  0.3430E+02
  12.965  0.1392E+01  0.3432E+02
  12.975  0.1391E+01  0.3433E+02
  12.985  0.1389E+01  0.3435E+02
  12.995  0.1388E+01  0.3436E+02
  13.005  0.1386E+01  0.3437E+02
  13.015  0.1385E+01  0.3439E+02
  13.025  0.1384E+01  0.3440E+02
  13.035  0.1382E+01  0.3441E+02
  13.045  0.1381E+01  0.3443E+02
  13.055  0.1379E+01  0.3444E+02
  13.065  0.1378E+01  0.3446E+02
  13.075  0.1377E+01  0.3447E+02
  13.085  0.1376E+01  0.3448E+02
  13.095  0.1374E+01  0.3450E+02
  13.105  0.1373E+01  0.3451E+02
  13.115  0.1372E+01  0.3452E+02
  13.125  0.1371E+01  0.3454E+02
  13.135  0.1369E+01  0.3455E+02
  13.145  0.1368E+01  0.3457E+02
  13.155  0.1367E+01  0.3458E+02
  13.165  0.1366E+01  0.3459E+02
  13.175  0.1365E+01  0.3461E+02
  13.185  0.1364E+01  0.3462E+02
  13.195  0.1363E+01  0.3463E+02
  13.205  0.1362E+01  0.3465E+02
  13.215  0.1361E+01  0.3466E+02
  13.225  0.1360E+01  0.3467E+02
  13.235  0.1359E+01  0.3469E+02
  13.245  0.1358E+01  0.3470E+02
  13.255  0.1357E+01  0.3472E+02
  13.265  0.1356E+01  0.3473E+02
  13.275  0.1355E+01  0.3474E+02
  13.285  0.1354E+01  0.3476E+02
  13.295  0.1354E+01  0.3477E+02
  13.305  0.1353E+01  0.3478E+02
  13.315  0.1352E+01  0.3480E+02
  13.325  0.1351E+01  0.3481E+02
  13.335  0.1351E+01  0.3482E+02
  13.345  0.1350E+01  0.3484E+02
  13.355  0.1350E+01  0.3485E+02
  13.365  0.1349E+01  0.3486E+02
  13.375  0.1348E+01  0.3488E+02
  13.385  0.1348E+01  0.3489E+02
  13.395  0.1347E+01  0.3490E+02
  13.405  0.1347E+01  0.3492E+02
  13.415  0.1346E+01  0.3493E+02
  13.425  0.1346E+01  0.3495E+02
  13.435  0.1346E+01  0.3496E+02
  13.445  0.1345E+01  0.3497E+02
  13.455  0.1345E+01  0.3499E+02
  13.465  0.1345E+01  0.3500E+02
  13.475  0.1344E+01  0.3501E+02
  13.485  0.1344E+01  0.3503E+02
  13.495  0.1344E+01  0.3504E+02
  13.505  0.1344E+01  0.3505E+02
  13.515  0.1344E+01  0.3507E+02
  13.525  0.1344E+01  0.3508E+02
  13.535  0.1344E+01  0.3509E+02
  13.545  0.1344E+01  0.3511E+02
  13.555  0.1344E+01  0.3512E+02
  13.565  0.1344E+01  0.3513E+02
  13.575  0.1344E+01  0.3515E+02
  13.585  0.1344E+01  0.3516E+02
  13.595  0.1344E+01  0.3517E+02
  13.605  0.1344E+01  0.3519E+02
  13.615  0.1344E+01  0.3520E+02
  13.625  0.1345E+01  0.3521E+02
  13.635  0.1345E+01  0.3523E+02
  13.645  0.1345E+01  0.3524E+02
  13.655  0.1346E+01  0.3525E+02
  13.665  0.1346E+01  0.3527E+02
  13.675  0.1346E+01  0.3528E+02
  13.685  0.1347E+01  0.3529E+02
  13.695  0.1347E+01  0.3531E+02
  13.705  0.1348E+01  0.3532E+02
  13.715  0.1348E+01  0.3534E+02
  13.725  0.1349E+01  0.3535E+02
  13.735  0.1350E+01  0.3536E+02
  13.745  0.1350E+01  0.3538E+02
  13.755  0.1351E+01  0.3539E+02
  13.765  0.1352E+01  0.3540E+02
  13.775  0.1352E+01  0.3542E+02
  13.785  0.1353E+01  0.3543E+02
  13.795  0.1354E+01  0.3544E+02
  13.805  0.1355E+01  0.3546E+02
  13.815  0.1356E+01  0.3547E+02
  13.825  0.1357E+01  0.3548E+02
  13.835  0.1358E+01  0.3550E+02
  13.845  0.1359E+01  0.3551E+02
  13.855  0.1360E+01  0.3552E+02
  13.865  0.1361E+01  0.3554E+02
  13.875  0.1362E+01  0.3555E+02
  13.885  0.1363E+01  0.3557E+02
  13.895  0.1364E+01  0.3558E+02
  13.905  0.1365E+01  0.3559E+02
  13.915  0.1366E+01  0.3561E+02
  13.925  0.1368E+01  0.3562E+02
  13.935  0.1369E+01  0.3563E+02
  13.945  0.1370E+01  0.3565E+02
  13.955  0.1372E+01  0.3566E+02
  13.965  0.1373E+01  0.3567E+02
  13.975  0.1374E+01  0.3569E+02
  13.985  0.1376E+01  0.3570E+02
  13.995  0.1377E+01  0.3572E+02
  14.005  0.1379E+01  0.3573E+02
  14.015  0.1380E+01  0.3574E+02
  14.025  0.1382E+01  0.3576E+02
  14.035  0.1383E+01  0.3577E+02
  14.045  0.1385E+01  0.3579E+02
  14.055  0.1386E+01  0.3580E+02
  14.065  0.1388E+01  0.3581E+02
  14.075  0.1390E+01  0.3583E+02
  14.085  0.1392E+01  0.3584E+02
  14.095  0.1393E+01  0.3585E+02
  14.105  0.1395E+01  0.3587E+02
  14.115  0.1397E+01  0.3588E+02
  14.125  0.1399E+01  0.3590E+02
  14.135  0.1400E+01  0.3591E+02
  14.145  0.1402E+01  0.3592E+02
  14.155  0.1404E+01  0.3594E+02
  14.165  0.1406E+01  0.3595E+02
  14.175  0.1408E+01  0.3597E+02
  14.185  0.1410E+01  0.3598E+02
  14.195  0.1412E+01  0.3600E+02
  14.205  0.1414E+01  0.3601E+02
  14.215  0.1416E+01  0.3602E+02
  14.225  0.1418E+01  0.3604E+02
  14.235  0.1420E+01  0.3605E+02
  14.245  0.1422E+01  0.3607E+02
  14.255  0.1424E+01  0.3608E+02
  14.265  0.1426E+01  0.3609E+02
  14.275  0.1429E+01  0.3611E+02
  14.285  0.1431E+01  0.3612E+02
  14.295  0.1433E+01  0.3614E+02
  14.305  0.1435E+01  0.3615E+02
  14.315  0.1437E+01  0.3617E+02
  14.325  0.1440E+01  0.3618E+02
  14.335  0.1442E+01  0.3620E+02
  14.345  0.1444E+01  0.3621E+02
  14.355  0.1446E+01  0.3622E+02
  14.365  0.1449E+01  0.3624E+02
  14.375  0.1451E+01  0.3625E+02
  14.385  0.1453E+01  0.3627E+02
  14.395  0.1456E+01  0.3628E+02
  14.405  0.1458E+01  0.3630E+02
  14.415  0.1460E+01  0.3631E+02
  14.425  0.1463E+01  0.3633E+02
  14.435  0.1465E+01  0.3634E+02
  14.445  0.1468E+01  0.3636E+02
  14.455  0.1470E+01  0.3637E+02
  14.465  0.1472E+01  0.3638E+02
  14.475  0.1475E+01  0.3640E+02
  14.485  0.1477E+01  0.3641E+02
  14.495  0.1480E+01  0.3643E+02
  14.505  0.1482E+01  0.3644E+02
  14.515  0.1485E+01  0.3646E+02
  14.525  0.1487E+01  0.3647E+02
  14.535  0.1490E+01  0.3649E+02
  14.545  0.1492E+01  0.3650E+02
  14.555  0.1495E+01  0.3652E+02
  14.565  0.1497E+01  0.3653E+02
  14.575  0.1499E+01  0.3655E+02
  14.585  0.1502E+01  0.3656E+02
  14.595  0.1504E+01  0.3658E+02
  14.605  0.1507E+01  0.3659E+02
  14.615  0.1509E+01  0.3661E+02
  14.625  0.1512E+01  0.3662E+02
  14.635  0.1514E+01  0.3664E+02
  14.645  0.1517E+01  0.3665E+02
  14.655  0.1519E+01  0.3667E+02
  14.665  0.1522E+01  0.3668E+02
  14.675  0.1524E+01  0.3670E+02
  14.685  0.1527E+01  0.3671E+02
  14.695  0.1529E+01  0.3673E+02
  14.705  0.1532E+01  0.3675E+02
  14.715  0.1534E+01  0.3676E+02
  14.725  0.1537E+01  0.3678E+02
  14.735  0.1539E+01  0.3679E+02
  14.745  0.1542E+01  0.3681E+02
  14.755  0.1544E+01  0.3682E+02
  14.765  0.1547E+01  0.3684E+02
  14.775  0.1549E+01  0.3685E+02
  14.785  0.1552E+01  0.3687E+02
  14.795  0.1554E+01  0.3688E+02
  14.805  0.1557E+01  0.3690E+02
  14.815  0.1559E+01  0.3692E+02
  14.825  0.1561E+01  0.3693E+02
  14.835  0.1564E+01  0.3695E+02
  14.845  0.1566E+01  0.3696E+02
  14.855  0.1569E+01  0.3698E+02
  14.865  0.1571E+01  0.3699E+02
  14.875  0.1573E+01  0.3701E+02
  14.885  0.1576E+01  0.3703E+02
  14.895  0.1578E+01  0.3704E+02
  14.905  0.1580E+01  0.3706E+02
  14.915  0.1583E+01  0.3707E+02
  14.925  0.1585E+01  0.3709E+02
  14.935  0.1587E+01  0.3710E+02
  14.945  0.1590E+01  0.3712E+02
  14.955  0.1592E+01  0.3714E+02
  14.965  0.1594E+01  0.3715E+02
  14.975  0.1596E+01  0.3717E+02
  14.985  0.1599E+01  0.3718E+02
  14.995  0.1601E+01  0.3720E+02
  15.005  0.1603E+01  0.3722E+02
  15.015  0.1605E+01  0.3723E+02
  15.025  0.1608E+01  0.3725E+02
  15.035  0.1610E+01  0.3726E+02
  15.045  0.1612E+01  0.3728E+02
  15.055  0.1614E+01  0.3730E+02
  15.065  0.1616E+01  0.3731E+02
  15.075  0.1618E+01  0.3733E+02
  15.085  0.1620E+01  0.3735E+02
  15.095  0.1623E+01  0.3736E+02
  15.105  0.1625E+01  0.3738E+02
  15.115  0.1627E+01  0.3739E+02
  15.125  0.1629E+01  0.3741E+02
  15.135  0.1631E+01  0.3743E+02
  15.145  0.1633E+01  0.3744E+02
  15.155  0.1635E+01  0.3746E+02
  15.165  0.1637E+01  0.3748E+02
  15.175  0.1639E+01  0.3749E+02
  15.185  0.1641E+01  0.3751E+02
  15.195  0.1643E+01  0.3752E+02
  15.205  0.1644E+01  0.3754E+02
  15.215  0.1646E+01  0.3756E+02
  15.225  0.1648E+01  0.3757E+02
  15.235  0.1650E+01  0.3759E+02
  15.245  0.1652E+01  0.3761E+02
  15.255  0.1654E+01  0.3762E+02
  15.265  0.1656E+01  0.3764E+02
  15.275  0.1658E+01  0.3766E+02
  15.285  0.1659E+01  0.3767E+02
  15.295  0.1661E+01  0.3769E+02
  15.305  0.1663E+01  0.3771E+02
  15.315  0.1665E+01  0.3772E+02
  15.325  0.1666E+01  0.3774E+02
  15.335  0.1668E+01  0.3776E+02
  15.345  0.1670E+01  0.3777E+02
  15.355  0.1672E+01  0.3779E+02
  15.365  0.1673E+01  0.3781E+02
  15.375  0.1675E+01  0.3782E+02
  15.385  0.1677E+01  0.3784E+02
  15.395  0.1678E+01  0.3786E+02
  15.405  0.1680E+01  0.3787E+02
  15.415  0.1682E+01  0.3789E+02
  15.425  0.1683E+01  0.3791E+02
  15.435  0.1685E+01  0.3792E+02
  15.445  0.1686E+01  0.3794E+02
  15.455  0.1688E+01  0.3796E+02
  15.465  0.1689E+01  0.3798E+02
  15.475  0.1691E+01  0.3799E+02
  15.485  0.1693E+01  0.3801E+02
  15.495  0.1694E+01  0.3803E+02
  15.505  0.1696E+01  0.3804E+02
  15.515  0.1697E+01  0.3806E+02
  15.525  0.1699E+01  0.3808E+02
  15.535  0.1700E+01  0.3809E+02
  15.545  0.1702E+01  0.3811E+02
  15.555  0.1703E+01  0.3813E+02
  15.565  0.1705E+01  0.3814E+02
  15.575  0.1706E+01  0.3816E+02
  15.585  0.1707E+01  0.3818E+02
  15.595  0.1709E+01  0.3820E+02
  15.605  0.1710E+01  0.3821E+02
  15.615  0.1712E+01  0.3823E+02
  15.625  0.1713E+01  0.3825E+02
  15.635  0.1714E+01  0.3826E+02
  15.645  0.1716E+01  0.3828E+02
  15.655  0.1717E+01  0.3830E+02
  15.665  0.1719E+01  0.3832E+02
  15.675  0.1720E+01  0.3833E+02
  15.685  0.1721E+01  0.3835E+02
  15.695  0.1723E+01  0.3837E+02
  15.705  0.1724E+01  0.3839E+02
  15.715  0.1725E+01  0.3840E+02
  15.725  0.1727E+01  0.3842E+02
  15.735  0.1728E+01  0.3844E+02
  15.745  0.1730E+01  0.3845E+02
  15.755  0.1731E+01  0.3847E+02
  15.765  0.1732E+01  0.3849E+02
  15.775  0.1734E+01  0.3851E+02
  15.785  0.1735E+01  0.3852E+02
  15.795  0.1736E+01  0.3854E+02
  15.805  0.1737E+01  0.3856E+02
  15.815  0.1739E+01  0.3858E+02
  15.825  0.1740E+01  0.3859E+02
  15.835  0.1741E+01  0.3861E+02
  15.845  0.1743E+01  0.3863E+02
  15.855  0.1744E+01  0.3865E+02
  15.865  0.1745E+01  0.3866E+02
  15.875  0.1747E+01  0.3868E+02
  15.885  0.1748E+01  0.3870E+02
  15.895  0.1749E+01  0.3872E+02
  15.905  0.1751E+01  0.3873E+02
  15.915  0.1752E+01  0.3875E+02
  15.925  0.1753E+01  0.3877E+02
  15.935  0.1754E+01  0.3879E+02
  15.945  0.1756E+01  0.3880E+02
  15.955  0.1757E+01  0.3882E+02
  15.965  0.1758E+01  0.3884E+02
  15.975  0.1760E+01  0.3886E+02
  15.985  0.1761E+01  0.3887E+02
  15.995  0.1762E+01  0.3889E+02
  16.005  0.1764E+01  0.3891E+02
  16.015  0.1765E+01  0.3893E+02
  16.025  0.1766E+01  0.3894E+02
  16.035  0.1767E+01  0.3896E+02
  16.045  0.1769E+01  0.3898E+02
  16.055  0.1770E+01  0.3900E+02
  16.065  0.1771E+01  0.3901E+02
  16.075  0.1773E+01  0.3903E+02
  16.085  0.1774E+01  0.3905E+02
  16.095  0.1775E+01  0.3907E+02
  16.105  0.1777E+01  0.3909E+02
  16.115  0.1778E+01  0.3910E+02
  16.125  0.1779E+01  0.3912E+02
  16.135  0.1781E+01  0.3914E+02
  16.145  0.1782E+01  0.3916E+02
  16.155  0.1783E+01  0.3917E+02
  16.165  0.1785E+01  0.3919E+02
  16.175  0.1786E+01  0.3921E+02
  16.185  0.1787E+01  0.3923E+02
  16.195  0.1789E+01  0.3925E+02
  16.205  0.1790E+01  0.3926E+02
  16.215  0.1791E+01  0.3928E+02
  16.225  0.1793E+01  0.3930E+02
  16.235  0.1794E+01  0.3932E+02
  16.245  0.1795E+01  0.3934E+02
  16.255  0.1797E+01  0.3935E+02
  16.265  0.1798E+01  0.3937E+02
  16.275  0.1799E+01  0.3939E+02
  16.285  0.1801E+01  0.3941E+02
  16.295  0.1802E+01  0.3943E+02
  16.305  0.1803E+01  0.3944E+02
  16.315  0.1805E+01  0.3946E+02
  16.325  0.1806E+01  0.3948E+02
  16.335  0.1807E+01  0.3950E+02
  16.345  0.1809E+01  0.3952E+02
  16.355  0.1810E+01  0.3953E+02
  16.365  0.1811E+01  0.3955E+02
  16.375  0.1813E+01  0.3957E+02
  16.385  0.1814E+01  0.3959E+02
  16.395  0.1816E+01  0.3961E+02
  16.405  0.1817E+01  0.3962E+02
  16.415  0.1818E+01  0.3964E+02
  16.425  0.1820E+01  0.3966E+02
  16.435  0.1821E+01  0.3968E+02
  16.445  0.1822E+01  0.3970E+02
  16.455  0.1824E+01  0.3972E+02
  16.465  0.1825E+01  0.3973E+02
  16.475  0.1827E+01  0.3975E+02
  16.485  0.1828E+01  0.3977E+02
  16.495  0.1829E+01  0.3979E+02
  16.505  0.1831E+01  0.3981E+02
  16.515  0.1832E+01  0.3983E+02
  16.525  0.1833E+01  0.3984E+02
  16.535  0.1835E+01  0.3986E+02
  16.545  0.1836E+01  0.3988E+02
  16.555  0.1837E+01  0.3990E+02
  16.565  0.1839E+01  0.3992E+02
  16.575  0.1840E+01  0.3994E+02
  16.585  0.1841E+01  0.3995E+02
  16.595  0.1843E+01  0.3997E+02
  16.605  0.1844E+01  0.3999E+02
  16.615  0.1845E+01  0.4001E+02
  16.625  0.1847E+01  0.4003E+02
  16.635  0.1848E+01  0.4005E+02
  16.645  0.1849E+01  0.4006E+02
  16.655  0.1851E+01  0.4008E+02
  16.665  0.1852E+01  0.4010E+02
  16.675  0.1853E+01  0.4012E+02
  16.685  0.1855E+01  0.4014E+02
  16.695  0.1856E+01  0.4016E+02
  16.705  0.1857E+01  0.4018E+02
  16.715  0.1859E+01  0.4019E+02
  16.725  0.1860E+01  0.4021E+02
  16.735  0.1861E+01  0.4023E+02
  16.745  0.1863E+01  0.4025E+02
  16.755  0.1864E+01  0.4027E+02
  16.765  0.1865E+01  0.4029E+02
  16.775  0.1866E+01  0.4031E+02
  16.785  0.1868E+01  0.4033E+02
  16.795  0.1869E+01  0.4034E+02
  16.805  0.1870E+01  0.4036E+02
  16.815  0.1871E+01  0.4038E+02
  16.825  0.1872E+01  0.4040E+02
  16.835  0.1874E+01  0.4042E+02
  16.845  0.1875E+01  0.4044E+02
  16.855  0.1876E+01  0.4046E+02
  16.865  0.1877E+01  0.4047E+02
  16.875  0.1878E+01  0.4049E+02
  16.885  0.1880E+01  0.4051E+02
  16.895  0.1881E+01  0.4053E+02
  16.905  0.1882E+01  0.4055E+02
  16.915  0.1883E+01  0.4057E+02
  16.925  0.1884E+01  0.4059E+02
  16.935  0.1885E+01  0.4061E+02
  16.945  0.1886E+01  0.4063E+02
  16.955  0.1887E+01  0.4064E+02
  16.965  0.1888E+01  0.4066E+02
  16.975  0.1890E+01  0.4068E+02
  16.985  0.1891E+01  0.4070E+02
  16.995  0.1892E+01  0.4072E+02
  17.005  0.1893E+01  0.4074E+02
  17.015  0.1894E+01  0.4076E+02
  17.025  0.1895E+01  0.4078E+02
  17.035  0.1896E+01  0.4080E+02
  17.045  0.1897E+01  0.4081E+02
  17.055  0.1897E+01  0.4083E+02
  17.065  0.1898E+01  0.4085E+02
  17.075  0.1899E+01  0.4087E+02
  17.085  0.1900E+01  0.4089E+02
  17.095  0.1901E+01  0.4091E+02
  17.105  0.1902E+01  0.4093E+02
  17.115  0.1903E+01  0.4095E+02
  17.125  0.1904E+01  0.4097E+02
  17.135  0.1904E+01  0.4099E+02
  17.145  0.1905E+01  0.4100E+02
  17.155  0.1906E+01  0.4102E+02
  17.165  0.1907E+01  0.4104E+02
  17.175  0.1907E+01  0.4106E+02
  17.185  0.1908E+01  0.4108E+02
  17.195  0.1909E+01  0.4110E+02
  17.205  0.1910E+01  0.4112E+02
  17.215  0.1910E+01  0.4114E+02
  17.225  0.1911E+01  0.4116E+02
  17.235  0.1911E+01  0.4118E+02
  17.245  0.1912E+01  0.4120E+02
  17.255  0.1913E+01  0.4121E+02
  17.265  0.1913E+01  0.4123E+02
  17.275  0.1914E+01  0.4125E+02
  17.285  0.1914E+01  0.4127E+02
  17.295  0.1915E+01  0.4129E+02
  17.305  0.1915E+01  0.4131E+02
  17.315  0.1916E+01  0.4133E+02
  17.325  0.1916E+01  0.4135E+02
  17.335  0.1917E+01  0.4137E+02
  17.345  0.1917E+01  0.4139E+02
  17.355  0.1917E+01  0.4141E+02
  17.365  0.1918E+01  0.4143E+02
  17.375  0.1918E+01  0.4144E+02
  17.385  0.1918E+01  0.4146E+02
  17.395  0.1919E+01  0.4148E+02
  17.405  0.1919E+01  0.4150E+02
  17.415  0.1919E+01  0.4152E+02
  17.425  0.1919E+01  0.4154E+02
  17.435  0.1919E+01  0.4156E+02
  17.445  0.1919E+01  0.4158E+02
  17.455  0.1920E+01  0.4160E+02
  17.465  0.1920E+01  0.4162E+02
  17.475  0.1920E+01  0.4164E+02
  17.485  0.1920E+01  0.4166E+02
  17.495  0.1920E+01  0.4168E+02
  17.505  0.1920E+01  0.4169E+02
  17.515  0.1920E+01  0.4171E+02
  17.525  0.1920E+01  0.4173E+02
  17.535  0.1920E+01  0.4175E+02
  17.545  0.1920E+01  0.4177E+02
  17.555  0.1919E+01  0.4179E+02
  17.565  0.1919E+01  0.4181E+02
  17.575  0.1919E+01  0.4183E+02
  17.585  0.1919E+01  0.4185E+02
  17.595  0.1919E+01  0.4187E+02
  17.605  0.1918E+01  0.4189E+02
  17.615  0.1918E+01  0.4191E+02
  17.625  0.1918E+01  0.4192E+02
  17.635  0.1917E+01  0.4194E+02
  17.645  0.1917E+01  0.4196E+02
  17.655  0.1917E+01  0.4198E+02
  17.665  0.1916E+01  0.4200E+02
  17.675  0.1916E+01  0.4202E+02
  17.685  0.1915E+01  0.4204E+02
  17.695  0.1915E+01  0.4206E+02
  17.705  0.1914E+01  0.4208E+02
  17.715  0.1914E+01  0.4210E+02
  17.725  0.1913E+01  0.4212E+02
  17.735  0.1912E+01  0.4214E+02
  17.745  0.1912E+01  0.4215E+02
  17.755  0.1911E+01  0.4217E+02
  17.765  0.1910E+01  0.4219E+02
  17.775  0.1910E+01  0.4221E+02
  17.785  0.1909E+01  0.4223E+02
  17.795  0.1908E+01  0.4225E+02
  17.805  0.1907E+01  0.4227E+02
  17.815  0.1907E+01  0.4229E+02
  17.825  0.1906E+01  0.4231E+02
  17.835  0.1905E+01  0.4233E+02
  17.845  0.1904E+01  0.4235E+02
  17.855  0.1903E+01  0.4236E+02
  17.865  0.1902E+01  0.4238E+02
  17.875  0.1901E+01  0.4240E+02
  17.885  0.1900E+01  0.4242E+02
  17.895  0.1899E+01  0.4244E+02
  17.905  0.1898E+01  0.4246E+02
  17.915  0.1897E+01  0.4248E+02
  17.925  0.1896E+01  0.4250E+02
  17.935  0.1894E+01  0.4252E+02
  17.945  0.1893E+01  0.4254E+02
  17.955  0.1892E+01  0.4255E+02
  17.965  0.1891E+01  0.4257E+02
  17.975  0.1890E+01  0.4259E+02
  17.985  0.1888E+01  0.4261E+02
  17.995  0.1887E+01  0.4263E+02
  18.005  0.1886E+01  0.4265E+02
  18.015  0.1884E+01  0.4267E+02
  18.025  0.1883E+01  0.4269E+02
  18.035  0.1881E+01  0.4270E+02
  18.045  0.1880E+01  0.4272E+02
  18.055  0.1878E+01  0.4274E+02
  18.065  0.1877E+01  0.4276E+02
  18.075  0.1875E+01  0.4278E+02
  18.085  0.1874E+01  0.4280E+02
  18.095  0.1872E+01  0.4282E+02
  18.105  0.1871E+01  0.4284E+02
  18.115  0.1869E+01  0.4285E+02
  18.125  0.1868E+01  0.4287E+02
  18.135  0.1866E+01  0.4289E+02
  18.145  0.1864E+01  0.4291E+02
  18.155  0.1863E+01  0.4293E+02
  18.165  0.1861E+01  0.4295E+02
  18.175  0.1859E+01  0.4297E+02
  18.185  0.1857E+01  0.4299E+02
  18.195  0.1856E+01  0.4300E+02
  18.205  0.1854E+01  0.4302E+02
  18.215  0.1852E+01  0.4304E+02
  18.225  0.1850E+01  0.4306E+02
  18.235  0.1848E+01  0.4308E+02
  18.245  0.1846E+01  0.4310E+02
  18.255  0.1844E+01  0.4311E+02
  18.265  0.1842E+01  0.4313E+02
  18.275  0.1840E+01  0.4315E+02
  18.285  0.1839E+01  0.4317E+02
  18.295  0.1837E+01  0.4319E+02
  18.305  0.1835E+01  0.4321E+02
  18.315  0.1832E+01  0.4322E+02
  18.325  0.1830E+01  0.4324E+02
  18.335  0.1828E+01  0.4326E+02
  18.345  0.1826E+01  0.4328E+02
  18.355  0.1824E+01  0.4330E+02
  18.365  0.1822E+01  0.4332E+02
  18.375  0.1820E+01  0.4333E+02
  18.385  0.1818E+01  0.4335E+02
  18.395  0.1816E+01  0.4337E+02
  18.405  0.1814E+01  0.4339E+02
  18.415  0.1811E+01  0.4341E+02
  18.425  0.1809E+01  0.4343E+02
  18.435  0.1807E+01  0.4344E+02
  18.445  0.1805E+01  0.4346E+02
  18.455  0.1803E+01  0.4348E+02
  18.465  0.1800E+01  0.4350E+02
  18.475  0.1798E+01  0.4352E+02
  18.485  0.1796E+01  0.4353E+02
  18.495  0.1793E+01  0.4355E+02
  18.505  0.1791E+01  0.4357E+02
  18.515  0.1789E+01  0.4359E+02
  18.525  0.1787E+01  0.4360E+02
  18.535  0.1784E+01  0.4362E+02
  18.545  0.1782E+01  0.4364E+02
  18.555  0.1780E+01  0.4366E+02
  18.565  0.1777E+01  0.4368E+02
  18.575  0.1775E+01  0.4369E+02
  18.585  0.1772E+01  0.4371E+02
  18.595  0.1770E+01  0.4373E+02
  18.605  0.1768E+01  0.4375E+02
  18.615  0.1765E+01  0.4376E+02
  18.625  0.1763E+01  0.4378E+02
  18.635  0.1761E+01  0.4380E+02
  18.645  0.1758E+01  0.4382E+02
  18.655  0.1756E+01  0.4383E+02
  18.665  0.1753E+01  0.4385E+02
  18.675  0.1751E+01  0.4387E+02
  18.685  0.1749E+01  0.4389E+02
  18.695  0.1746E+01  0.4390E+02
  18.705  0.1744E+01  0.4392E+02
  18.715  0.1741E+01  0.4394E+02
  18.725  0.1739E+01  0.4396E+02
  18.735  0.1737E+01  0.4397E+02
  18.745  0.1734E+01  0.4399E+02
  18.755  0.1732E+01  0.4401E+02
  18.765  0.1729E+01  0.4403E+02
  18.775  0.1727E+01  0.4404E+02
  18.785  0.1724E+01  0.4406E+02
  18.795  0.1722E+01  0.4408E+02
  18.805  0.1720E+01  0.4410E+02
  18.815  0.1717E+01  0.4411E+02
  18.825  0.1715E+01  0.4413E+02
  18.835  0.1713E+01  0.4415E+02
  18.845  0.1710E+01  0.4416E+02
  18.855  0.1708E+01  0.4418E+02
  18.865  0.1705E+01  0.4420E+02
  18.875  0.1703E+01  0.4422E+02
  18.885  0.1701E+01  0.4423E+02
  18.895  0.1698E+01  0.4425E+02
  18.905  0.1696E+01  0.4427E+02
  18.915  0.1694E+01  0.4428E+02
  18.925  0.1691E+01  0.4430E+02
  18.935  0.1689E+01  0.4432E+02
  18.945  0.1687E+01  0.4433E+02
  18.955  0.1684E+01  0.4435E+02
  18.965  0.1682E+01  0.4437E+02
  18.975  0.1680E+01  0.4438E+02
  18.985  0.1678E+01  0.4440E+02
  18.995  0.1675E+01  0.4442E+02
  19.005  0.1673E+01  0.4443E+02
  19.015  0.1671E+01  0.4445E+02
  19.025  0.1669E+01  0.4447E+02
  19.035  0.1666E+01  0.4448E+02
  19.045  0.1664E+01  0.4450E+02
  19.055  0.1662E+01  0.4452E+02
  19.065  0.1660E+01  0.4453E+02
  19.075  0.1658E+01  0.4455E+02
  19.085  0.1656E+01  0.4457E+02
  19.095  0.1654E+01  0.4458E+02
  19.105  0.1651E+01  0.4460E+02
  19.115  0.1649E+01  0.4462E+02
  19.125  0.1647E+01  0.4463E+02
  19.135  0.1645E+01  0.4465E+02
  19.145  0.1643E+01  0.4467E+02
  19.155  0.1641E+01  0.4468E+02
  19.165  0.1639E+01  0.4470E+02
  19.175  0.1637E+01  0.4472E+02
  19.185  0.1635E+01  0.4473E+02
  19.195  0.1633E+01  0.4475E+02
  19.205  0.1631E+01  0.4476E+02
  19.215  0.1629E+01  0.4478E+02
  19.225  0.1628E+01  0.4480E+02
  19.235  0.1626E+01  0.4481E+02
  19.245  0.1624E+01  0.4483E+02
  19.255  0.1622E+01  0.4485E+02
  19.265  0.1620E+01  0.4486E+02
  19.275  0.1618E+01  0.4488E+02
  19.285  0.1616E+01  0.4489E+02
  19.295  0.1615E+01  0.4491E+02
  19.305  0.1613E+01  0.4493E+02
  19.315  0.1611E+01  0.4494E+02
  19.325  0.1609E+01  0.4496E+02
  19.335  0.1608E+01  0.4497E+02
  19.345  0.1606E+01  0.4499E+02
  19.355  0.1604E+01  0.4501E+02
  19.365  0.1603E+01  0.4502E+02
  19.375  0.1601E+01  0.4504E+02
  19.385  0.1599E+01  0.4506E+02
  19.395  0.1598E+01  0.4507E+02
  19.405  0.1596E+01  0.4509E+02
  19.415  0.1594E+01  0.4510E+02
  19.425  0.1593E+01  0.4512E+02
  19.435  0.1591E+01  0.4513E+02
  19.445  0.1590E+01  0.4515E+02
  19.455  0.1588E+01  0.4517E+02
  19.465  0.1587E+01  0.4518E+02
  19.475  0.1585E+01  0.4520E+02
  19.485  0.1583E+01  0.4521E+02
  19.495  0.1582E+01  0.4523E+02
  19.505  0.1580E+01  0.4525E+02
  19.515  0.1579E+01  0.4526E+02
  19.525  0.1578E+01  0.4528E+02
  19.535  0.1576E+01  0.4529E+02
  19.545  0.1575E+01  0.4531E+02
  19.555  0.1573E+01  0.4532E+02
  19.565  0.1572E+01  0.4534E+02
  19.575  0.1570E+01  0.4536E+02
  19.585  0.1569E+01  0.4537E+02
  19.595  0.1567E+01  0.4539E+02
  19.605  0.1566E+01  0.4540E+02
  19.615  0.1564E+01  0.4542E+02
  19.625  0.1563E+01  0.4543E+02
  19.635  0.1562E+01  0.4545E+02
  19.645  0.1560E+01  0.4547E+02
  19.655  0.1559E+01  0.4548E+02
  19.665  0.1557E+01  0.4550E+02
  19.675  0.1556E+01  0.4551E+02
  19.685  0.1554E+01  0.4553E+02
  19.695  0.1553E+01  0.4554E+02
  19.705  0.1551E+01  0.4556E+02
  19.715  0.1550E+01  0.4557E+02
  19.725  0.1548E+01  0.4559E+02
  19.735  0.1547E+01  0.4561E+02
  19.745  0.1545E+01  0.4562E+02
  19.755  0.1544E+01  0.4564E+02
  19.765  0.1542E+01  0.4565E+02
  19.775  0.1541E+01  0.4567E+02
  19.785  0.1539E+01  0.4568E+02
  19.795  0.1538E+01  0.4570E+02
  19.805  0.1536E+01  0.4571E+02
  19.815  0.1535E+01  0.4573E+02
  19.825  0.1533E+01  0.4574E+02
  19.835  0.1531E+01  0.4576E+02
  19.845  0.1530E+01  0.4577E+02
  19.855  0.1528E+01  0.4579E+02
  19.865  0.1526E+01  0.4580E+02
  19.875  0.1525E+01  0.4582E+02
  19.885  0.1523E+01  0.4584E+02
  19.895  0.1521E+01  0.4585E+02
  19.905  0.1519E+01  0.4587E+02
  19.915  0.1517E+01  0.4588E+02
  19.925  0.1515E+01  0.4590E+02
  19.935  0.1514E+01  0.4591E+02
  19.945  0.1512E+01  0.4593E+02
  19.955  0.1510E+01  0.4594E+02
  19.965  0.1508E+01  0.4596E+02
  19.975  0.1506E+01  0.4597E+02
  19.985  0.1504E+01  0.4599E+02
  19.995  0.1501E+01  0.4600E+02
  20.005  0.1499E+01  0.4602E+02
  20.015  0.1497E+01  0.4603E+02
  20.025  0.1495E+01  0.4605E+02
  20.035  0.1493E+01  0.4606E+02
  20.045  0.1490E+01  0.4608E+02
  20.055  0.1488E+01  0.4609E+02
  20.065  0.1485E+01  0.4611E+02
  20.075  0.1483E+01  0.4612E+02
  20.085  0.1480E+01  0.4614E+02
  20.095  0.1478E+01  0.4615E+02
  20.105  0.1475E+01  0.4617E+02
  20.115  0.1473E+01  0.4618E+02
  20.125  0.1470E+01  0.4619E+02
  20.135  0.1467E+01  0.4621E+02
  20.145  0.1464E+01  0.4622E+02
  20.155  0.1461E+01  0.4624E+02
  20.165  0.1458E+01  0.4625E+02
  20.175  0.1455E+01  0.4627E+02
  20.185  0.1452E+01  0.4628E+02
  20.195  0.1449E+01  0.4630E+02
  20.205  0.1446E+01  0.4631E+02
  20.215  0.1443E+01  0.4633E+02
  20.225  0.1439E+01  0.4634E+02
  20.235  0.1436E+01  0.4635E+02
  20.245  0.1433E+01  0.4637E+02
  20.255  0.1429E+01  0.4638E+02
  20.265  0.1426E+01  0.4640E+02
  20.275  0.1422E+01  0.4641E+02
  20.285  0.1418E+01  0.4643E+02
  20.295  0.1415E+01  0.4644E+02
  20.305  0.1411E+01  0.4645E+02
  20.315  0.1407E+01  0.4647E+02
  20.325  0.1403E+01  0.4648E+02
  20.335  0.1399E+01  0.4650E+02
  20.345  0.1395E+01  0.4651E+02
  20.355  0.1391E+01  0.4652E+02
  20.365  0.1386E+01  0.4654E+02
  20.375  0.1382E+01  0.4655E+02
  20.385  0.1378E+01  0.4657E+02
  20.395  0.1373E+01  0.4658E+02
  20.405  0.1369E+01  0.4659E+02
  20.415  0.1364E+01  0.4661E+02
  20.425  0.1359E+01  0.4662E+02
  20.435  0.1355E+01  0.4663E+02
  20.445  0.1350E+01  0.4665E+02
  20.455  0.1345E+01  0.4666E+02
  20.465  0.1340E+01  0.4667E+02
  20.475  0.1335E+01  0.4669E+02
  20.485  0.1330E+01  0.4670E+02
  20.495  0.1325E+01  0.4671E+02
  20.505  0.1320E+01  0.4673E+02
  20.515  0.1314E+01  0.4674E+02
  20.525  0.1309E+01  0.4675E+02
  20.535  0.1303E+01  0.4677E+02
  20.545  0.1298E+01  0.4678E+02
  20.555  0.1292E+01  0.4679E+02
  20.565  0.1287E+01  0.4680E+02
  20.575  0.1281E+01  0.4682E+02
  20.585  0.1275E+01  0.4683E+02
  20.595  0.1269E+01  0.4684E+02
  20.605  0.1263E+01  0.4686E+02
  20.615  0.1257E+01  0.4687E+02
  20.625  0.1251E+01  0.4688E+02
  20.635  0.1245E+01  0.4689E+02
  20.645  0.1239E+01  0.4691E+02
  20.655  0.1232E+01  0.4692E+02
  20.665  0.1226E+01  0.4693E+02
  20.675  0.1220E+01  0.4694E+02
  20.685  0.1213E+01  0.4695E+02
  20.695  0.1207E+01  0.4697E+02
  20.705  0.1200E+01  0.4698E+02
  20.715  0.1193E+01  0.4699E+02
  20.725  0.1187E+01  0.4700E+02
  20.735  0.1180E+01  0.4701E+02
  20.745  0.1173E+01  0.4703E+02
  20.755  0.1166E+01  0.4704E+02
  20.765  0.1159E+01  0.4705E+02
  20.775  0.1152E+01  0.4706E+02
  20.785  0.1145E+01  0.4707E+02
  20.795  0.1138E+01  0.4708E+02
  20.805  0.1131E+01  0.4710E+02
  20.815  0.1124E+01  0.4711E+02
  20.825  0.1116E+01  0.4712E+02
  20.835  0.1109E+01  0.4713E+02
  20.845  0.1102E+01  0.4714E+02
  20.855  0.1094E+01  0.4715E+02
  20.865  0.1087E+01  0.4716E+02
  20.875  0.1079E+01  0.4717E+02
  20.885  0.1072E+01  0.4718E+02
  20.895  0.1064E+01  0.4719E+02
  20.905  0.1056E+01  0.4720E+02
  20.915  0.1049E+01  0.4721E+02
  20.925  0.1041E+01  0.4722E+02
  20.935  0.1033E+01  0.4724E+02
  20.945  0.1025E+01  0.4725E+02
  20.955  0.1017E+01  0.4726E+02
  20.965  0.1010E+01  0.4727E+02
  20.975  0.1002E+01  0.4728E+02
  20.985  0.9937E+00  0.4729E+02
  20.995  0.9857E+00  0.4730E+02
  21.005  0.9777E+00  0.4731E+02
  21.015  0.9697E+00  0.4732E+02
  21.025  0.9616E+00  0.4732E+02
  21.035  0.9536E+00  0.4733E+02
  21.045  0.9455E+00  0.4734E+02
  21.055  0.9373E+00  0.4735E+02
  21.065  0.9292E+00  0.4736E+02
  21.075  0.9210E+00  0.4737E+02
  21.085  0.9129E+00  0.4738E+02
  21.095  0.9047E+00  0.4739E+02
  21.105  0.8964E+00  0.4740E+02
  21.115  0.8882E+00  0.4741E+02
  21.125  0.8800E+00  0.4742E+02
  21.135  0.8718E+00  0.4743E+02
  21.145  0.8635E+00  0.4743E+02
  21.155  0.8552E+00  0.4744E+02
  21.165  0.8470E+00  0.4745E+02
  21.175  0.8387E+00  0.4746E+02
  21.185  0.8304E+00  0.4747E+02
  21.195  0.8222E+00  0.4748E+02
  21.205  0.8139E+00  0.4748E+02
  21.215  0.8056E+00  0.4749E+02
  21.225  0.7974E+00  0.4750E+02
  21.235  0.7891E+00  0.4751E+02
  21.245  0.7809E+00  0.4752E+02
  21.255  0.7726E+00  0.4752E+02
  21.265  0.7644E+00  0.4753E+02
  21.275  0.7561E+00  0.4754E+02
  21.285  0.7479E+00  0.4755E+02
  21.295  0.7397E+00  0.4755E+02
  21.305  0.7315E+00  0.4756E+02
  21.315  0.7234E+00  0.4757E+02
  21.325  0.7152E+00  0.4758E+02
  21.335  0.7071E+00  0.4758E+02
  21.345  0.6990E+00  0.4759E+02
  21.355  0.6909E+00  0.4760E+02
  21.365  0.6828E+00  0.4760E+02
  21.375  0.6747E+00  0.4761E+02
  21.385  0.6667E+00  0.4762E+02
  21.395  0.6587E+00  0.4762E+02
  21.405  0.6508E+00  0.4763E+02
  21.415  0.6428E+00  0.4764E+02
  21.425  0.6349E+00  0.4764E+02
  21.435  0.6270E+00  0.4765E+02
  21.445  0.6192E+00  0.4765E+02
  21.455  0.6114E+00  0.4766E+02
  21.465  0.6036E+00  0.4767E+02
  21.475  0.5958E+00  0.4767E+02
  21.485  0.5881E+00  0.4768E+02
  21.495  0.5805E+00  0.4768E+02
  21.505  0.5728E+00  0.4769E+02
  21.515  0.5652E+00  0.4770E+02
  21.525  0.5577E+00  0.4770E+02
  21.535  0.5502E+00  0.4771E+02
  21.545  0.5427E+00  0.4771E+02
  21.555  0.5353E+00  0.4772E+02
  21.565  0.5279E+00  0.4772E+02
  21.575  0.5206E+00  0.4773E+02
  21.585  0.5133E+00  0.4773E+02
  21.595  0.5060E+00  0.4774E+02
  21.605  0.4988E+00  0.4774E+02
  21.615  0.4917E+00  0.4775E+02
  21.625  0.4846E+00  0.4775E+02
  21.635  0.4775E+00  0.4776E+02
  21.645  0.4706E+00  0.4776E+02
  21.655  0.4636E+00  0.4777E+02
  21.665  0.4567E+00  0.4777E+02
  21.675  0.4499E+00  0.4778E+02
  21.685  0.4431E+00  0.4778E+02
  21.695  0.4364E+00  0.4779E+02
  21.705  0.4297E+00  0.4779E+02
  21.715  0.4231E+00  0.4779E+02
  21.725  0.4165E+00  0.4780E+02
  21.735  0.4100E+00  0.4780E+02
  21.745  0.4036E+00  0.4781E+02
  21.755  0.3972E+00  0.4781E+02
  21.765  0.3908E+00  0.4781E+02
  21.775  0.3846E+00  0.4782E+02
  21.785  0.3783E+00  0.4782E+02
  21.795  0.3722E+00  0.4783E+02
  21.805  0.3661E+00  0.4783E+02
  21.815  0.3600E+00  0.4783E+02
  21.825  0.3541E+00  0.4784E+02
  21.835  0.3481E+00  0.4784E+02
  21.845  0.3423E+00  0.4784E+02
  21.855  0.3365E+00  0.4785E+02
  21.865  0.3307E+00  0.4785E+02
  21.875  0.3251E+00  0.4785E+02
  21.885  0.3195E+00  0.4786E+02
  21.895  0.3139E+00  0.4786E+02
  21.905  0.3084E+00  0.4786E+02
  21.915  0.3030E+00  0.4787E+02
  21.925  0.2976E+00  0.4787E+02
  21.935  0.2923E+00  0.4787E+02
  21.945  0.2871E+00  0.4787E+02
  21.955  0.2819E+00  0.4788E+02
  21.965  0.2768E+00  0.4788E+02
  21.975  0.2717E+00  0.4788E+02
  21.985  0.2667E+00  0.4788E+02
  21.995  0.2618E+00  0.4789E+02
  22.005  0.2569E+00  0.4789E+02
  22.015  0.2521E+00  0.4789E+02
  22.025  0.2474E+00  0.4790E+02
  22.035  0.2427E+00  0.4790E+02
  22.045  0.2381E+00  0.4790E+02
  22.055  0.2335E+00  0.4790E+02
  22.065  0.2290E+00  0.4790E+02
  22.075  0.2246E+00  0.4791E+02
  22.085  0.2202E+00  0.4791E+02
  22.095  0.2159E+00  0.4791E+02
  22.105  0.2116E+00  0.4791E+02
  22.115  0.2074E+00  0.4792E+02
  22.125  0.2033E+00  0.4792E+02
  22.135  0.1992E+00  0.4792E+02
  22.145  0.1952E+00  0.4792E+02
  22.155  0.1912E+00  0.4792E+02
  22.165  0.1873E+00  0.4793E+02
  22.175  0.1835E+00  0.4793E+02
  22.185  0.1797E+00  0.4793E+02
  22.195  0.1760E+00  0.4793E+02
  22.205  0.1723E+00  0.4793E+02
  22.215  0.1687E+00  0.4793E+02
  22.225  0.1651E+00  0.4794E+02
  22.235  0.1616E+00  0.4794E+02
  22.245  0.1582E+00  0.4794E+02
  22.255  0.1548E+00  0.4794E+02
  22.265  0.1515E+00  0.4794E+02
  22.275  0.1482E+00  0.4794E+02
  22.285  0.1450E+00  0.4794E+02
  22.295  0.1418E+00  0.4795E+02
  22.305  0.1387E+00  0.4795E+02
  22.315  0.1356E+00  0.4795E+02
  22.325  0.1326E+00  0.4795E+02
  22.335  0.1297E+00  0.4795E+02
  22.345  0.1268E+00  0.4795E+02
  22.355  0.1239E+00  0.4795E+02
  22.365  0.1211E+00  0.4796E+02
  22.375  0.1183E+00  0.4796E+02
  22.385  0.1156E+00  0.4796E+02
  22.395  0.1130E+00  0.4796E+02
  22.405  0.1104E+00  0.4796E+02
  22.415  0.1078E+00  0.4796E+02
  22.425  0.1053E+00  0.4796E+02
  22.435  0.1028E+00  0.4796E+02
  22.445  0.1004E+00  0.4796E+02
  22.455  0.9803E-01  0.4796E+02
  22.465  0.9570E-01  0.4797E+02
  22.475  0.9342E-01  0.4797E+02
  22.485  0.9118E-01  0.4797E+02
  22.495  0.8898E-01  0.4797E+02
  22.505  0.8683E-01  0.4797E+02
  22.515  0.8471E-01  0.4797E+02
  22.525  0.8264E-01  0.4797E+02
  22.535  0.8062E-01  0.4797E+02
  22.545  0.7863E-01  0.4797E+02
  22.555  0.7668E-01  0.4797E+02
  22.565  0.7477E-01  0.4797E+02
  22.575  0.7290E-01  0.4798E+02
  22.585  0.7107E-01  0.4798E+02
  22.595  0.6928E-01  0.4798E+02
  22.605  0.6753E-01  0.4798E+02
  22.615  0.6581E-01  0.4798E+02
  22.625  0.6413E-01  0.4798E+02
  22.635  0.6248E-01  0.4798E+02
  22.645  0.6087E-01  0.4798E+02
  22.655  0.5930E-01  0.4798E+02
  22.665  0.5776E-01  0.4798E+02
  22.675  0.5625E-01  0.4798E+02
  22.685  0.5478E-01  0.4798E+02
  22.695  0.5334E-01  0.4798E+02
  22.705  0.5193E-01  0.4798E+02
  22.715  0.5055E-01  0.4798E+02
  22.725  0.4920E-01  0.4798E+02
  22.735  0.4788E-01  0.4798E+02
  22.745  0.4660E-01  0.4798E+02
  22.755  0.4534E-01  0.4799E+02
  22.765  0.4411E-01  0.4799E+02
  22.775  0.4291E-01  0.4799E+02
  22.785  0.4174E-01  0.4799E+02
  22.795  0.4060E-01  0.4799E+02
  22.805  0.3948E-01  0.4799E+02
  22.815  0.3839E-01  0.4799E+02
  22.825  0.3733E-01  0.4799E+02
  22.835  0.3629E-01  0.4799E+02
  22.845  0.3527E-01  0.4799E+02
  22.855  0.3428E-01  0.4799E+02
  22.865  0.3332E-01  0.4799E+02
  22.875  0.3237E-01  0.4799E+02
  22.885  0.3146E-01  0.4799E+02
  22.895  0.3056E-01  0.4799E+02
  22.905  0.2969E-01  0.4799E+02
  22.915  0.2883E-01  0.4799E+02
  22.925  0.2800E-01  0.4799E+02
  22.935  0.2719E-01  0.4799E+02
  22.945  0.2640E-01  0.4799E+02
  22.955  0.2564E-01  0.4799E+02
  22.965  0.2489E-01  0.4799E+02
  22.975  0.2416E-01  0.4799E+02
  22.985  0.2344E-01  0.4799E+02
  22.995  0.2275E-01  0.4799E+02
  23.005  0.2208E-01  0.4799E+02
  23.015  0.2142E-01  0.4799E+02
  23.025  0.2078E-01  0.4799E+02
  23.035  0.2016E-01  0.4799E+02
  23.045  0.1955E-01  0.4799E+02
  23.055  0.1896E-01  0.4799E+02
  23.065  0.1839E-01  0.4799E+02
  23.075  0.1783E-01  0.4799E+02
  23.085  0.1729E-01  0.4799E+02
  23.095  0.1676E-01  0.4800E+02
  23.105  0.1624E-01  0.4800E+02
  23.115  0.1574E-01  0.4800E+02
  23.125  0.1526E-01  0.4800E+02
  23.135  0.1478E-01  0.4800E+02
  23.145  0.1432E-01  0.4800E+02
  23.155  0.1388E-01  0.4800E+02
  23.165  0.1344E-01  0.4800E+02
  23.175  0.1302E-01  0.4800E+02
  23.185  0.1261E-01  0.4800E+02
  23.195  0.1221E-01  0.4800E+02
  23.205  0.1182E-01  0.4800E+02
  23.215  0.1145E-01  0.4800E+02
  23.225  0.1108E-01  0.4800E+02
  23.235  0.1073E-01  0.4800E+02
  23.245  0.1038E-01  0.4800E+02
  23.255  0.1005E-01  0.4800E+02
  23.265  0.9723E-02  0.4800E+02
  23.275  0.9408E-02  0.4800E+02
  23.285  0.9102E-02  0.4800E+02
  23.295  0.8805E-02  0.4800E+02
  23.305  0.8517E-02  0.4800E+02
  23.315  0.8238E-02  0.4800E+02
  23.325  0.7967E-02  0.4800E+02
  23.335  0.7704E-02  0.4800E+02
  23.345  0.7449E-02  0.4800E+02
  23.355  0.7202E-02  0.4800E+02
  23.365  0.6962E-02  0.4800E+02
  23.375  0.6729E-02  0.4800E+02
  23.385  0.6504E-02  0.4800E+02
  23.395  0.6285E-02  0.4800E+02
  23.405  0.6074E-02  0.4800E+02
  23.415  0.5868E-02  0.4800E+02
  23.425  0.5669E-02  0.4800E+02
  23.435  0.5477E-02  0.4800E+02
  23.445  0.5290E-02  0.4800E+02
  23.455  0.5109E-02  0.4800E+02
  23.465  0.4934E-02  0.4800E+02
  23.475  0.4765E-02  0.4800E+02
  23.485  0.4601E-02  0.4800E+02
  23.495  0.4442E-02  0.4800E+02
  23.505  0.4288E-02  0.4800E+02
  23.515  0.4139E-02  0.4800E+02
  23.525  0.3995E-02  0.4800E+02
  23.535  0.3855E-02  0.4800E+02
  23.545  0.3720E-02  0.4800E+02
  23.555  0.3589E-02  0.4800E+02
  23.565  0.3463E-02  0.4800E+02
  23.575  0.3341E-02  0.4800E+02
  23.585  0.3222E-02  0.4800E+02
  23.595  0.3108E-02  0.4800E+02
  23.605  0.2997E-02  0.4800E+02
  23.615  0.2890E-02  0.4800E+02
  23.625  0.2787E-02  0.4800E+02
  23.635  0.2687E-02  0.4800E+02
  23.645  0.2590E-02  0.4800E+02
  23.655  0.2497E-02  0.4800E+02
  23.665  0.2407E-02  0.4800E+02
  23.675  0.2319E-02  0.4800E+02
  23.685  0.2235E-02  0.4800E+02
  23.695  0.2154E-02  0.4800E+02
  23.705  0.2075E-02  0.4800E+02
  23.715  0.1999E-02  0.4800E+02
  23.725  0.1926E-02  0.4800E+02
  23.735  0.1855E-02  0.4800E+02
  23.745  0.1786E-02  0.4800E+02
  23.755  0.1720E-02  0.4800E+02
  23.765  0.1657E-02  0.4800E+02
  23.775  0.1595E-02  0.4800E+02
  23.785  0.1536E-02  0.4800E+02
  23.795  0.1478E-02  0.4800E+02
  23.805  0.1423E-02  0.4800E+02
  23.815  0.1369E-02  0.4800E+02
  23.825  0.1318E-02  0.4800E+02
  23.835  0.1268E-02  0.4800E+02
  23.845  0.1220E-02  0.4800E+02
  23.855  0.1174E-02  0.4800E+02
  23.865  0.1129E-02  0.4800E+02
  23.875  0.1086E-02  0.4800E+02
  23.885  0.1045E-02  0.4800E+02
  23.895  0.1005E-02  0.4800E+02
  23.905  0.9664E-03  0.4800E+02
  23.915  0.9293E-03  0.4800E+02
  23.925  0.8934E-03  0.4800E+02
  23.935  0.8589E-03  0.4800E+02
  23.945  0.8257E-03  0.4800E+02
  23.955  0.7936E-03  0.4800E+02
  23.965  0.7627E-03  0.4800E+02
  23.975  0.7330E-03  0.4800E+02
  23.985  0.7043E-03  0.4800E+02
  23.995  0.6767E-03  0.4800E+02
  24.005  0.6501E-03  0.4800E+02
  24.015  0.6245E-03  0.4800E+02
  24.025  0.5999E-03  0.4800E+02
  24.035  0.5762E-03  0.4800E+02
  24.045  0.5533E-03  0.4800E+02
  24.055  0.5313E-03  0.4800E+02
  24.065  0.5102E-03  0.4800E+02
  24.075  0.4898E-03  0.4800E+02
  24.085  0.4702E-03  0.4800E+02
  24.095  0.4513E-03  0.4800E+02
  24.105  0.4332E-03  0.4800E+02
  24.115  0.4157E-03  0.4800E+02
  24.125  0.3989E-03  0.4800E+02
  24.135  0.3828E-03  0.4800E+02
  24.145  0.3672E-03  0.4800E+02
  24.155  0.3523E-03  0.4800E+02
  24.165  0.3379E-03  0.4800E+02
  24.175  0.3241E-03  0.4800E+02
  24.185  0.3108E-03  0.4800E+02
  24.195  0.2981E-03  0.4800E+02
  24.205  0.2858E-03  0.4800E+02
  24.215  0.2740E-03  0.4800E+02
  24.225  0.2627E-03  0.4800E+02
  24.235  0.2518E-03  0.4800E+02
  24.245  0.2413E-03  0.4800E+02
  24.255  0.2313E-03  0.4800E+02
  24.265  0.2216E-03  0.4800E+02
  24.275  0.2124E-03  0.4800E+02
  24.285  0.2035E-03  0.4800E+02
  24.295  0.1949E-03  0.4800E+02
  24.305  0.1867E-03  0.4800E+02
  24.315  0.1788E-03  0.4800E+02
  24.325  0.1712E-03  0.4800E+02
  24.335  0.1640E-03  0.4800E+02
  24.345  0.1570E-03  0.4800E+02
  24.355  0.1503E-03  0.4800E+02
  24.365  0.1439E-03  0.4800E+02
  24.375  0.1377E-03  0.4800E+02
  24.385  0.1318E-03  0.4800E+02
  24.395  0.1262E-03  0.4800E+02
  24.405  0.1207E-03  0.4800E+02
  24.415  0.1155E-03  0.4800E+02
  24.425  0.1105E-03  0.4800E+02
  24.435  0.1057E-03  0.4800E+02
  24.445  0.1011E-03  0.4800E+02
  24.455  0.9669E-04  0.4800E+02
  24.465  0.9246E-04  0.4800E+02
  24.475  0.8841E-04  0.4800E+02
  24.485  0.8453E-04  0.4800E+02
  24.495  0.8080E-04  0.4800E+02
  24.505  0.7724E-04  0.4800E+02
  24.515  0.7382E-04  0.4800E+02
  24.525  0.7055E-04  0.4800E+02
  24.535  0.6741E-04  0.4800E+02
  24.545  0.6441E-04  0.4800E+02
  24.555  0.6153E-04  0.4800E+02
  24.565  0.5878E-04  0.4800E+02
  24.575  0.5614E-04  0.4800E+02
  24.585  0.5361E-04  0.4800E+02
  24.595  0.5120E-04  0.4800E+02
  24.605  0.4888E-04  0.4800E+02
  24.615  0.4667E-04  0.4800E+02
  24.625  0.4455E-04  0.4800E+02
  24.635  0.4252E-04  0.4800E+02
  24.645  0.4058E-04  0.4800E+02
  24.655  0.3873E-04  0.4800E+02
  24.665  0.3695E-04  0.4800E+02
  24.675  0.3525E-04  0.4800E+02
  24.685  0.3363E-04  0.4800E+02
  24.695  0.3208E-04  0.4800E+02
  24.705  0.3059E-04  0.4800E+02
  24.715  0.2917E-04  0.4800E+02
  24.725  0.2781E-04  0.4800E+02
  24.735  0.2652E-04  0.4800E+02
  24.745  0.2528E-04  0.4800E+02
  24.755  0.2409E-04  0.4800E+02
  24.765  0.2296E-04  0.4800E+02
  24.775  0.2188E-04  0.4800E+02
  24.785  0.2085E-04  0.4800E+02
  24.795  0.1986E-04  0.4800E+02
  24.805  0.1892E-04  0.4800E+02
  24.815  0.1802E-04  0.4800E+02
  24.825  0.1716E-04  0.4800E+02
  24.835  0.1634E-04  0.4800E+02
  24.845  0.1556E-04  0.4800E+02
  24.855  0.1481E-04  0.4800E+02
  24.865  0.1410E-04  0.4800E+02
  24.875  0.1342E-04  0.4800E+02
  24.885  0.1277E-04  0.4800E+02
  24.895  0.1215E-04  0.4800E+02
  24.905  0.1156E-04  0.4800E+02
  24.915  0.1100E-04  0.4800E+02
  24.925  0.1046E-04  0.4800E+02
  24.935  0.9951E-05  0.4800E+02
  24.945  0.9463E-05  0.4800E+02
  24.955  0.8997E-05  0.4800E+02
  24.965  0.8554E-05  0.4800E+02
  24.975  0.8131E-05  0.4800E+02
  24.985  0.7728E-05  0.4800E+02
  24.995  0.7344E-05  0.4800E+02
  25.005  0.6979E-05  0.4800E+02
  25.015  0.6630E-05  0.4800E+02
  25.025  0.6299E-05  0.4800E+02
  25.035  0.5983E-05  0.4800E+02
  25.045  0.5682E-05  0.4800E+02
  25.055  0.5395E-05  0.4800E+02
  25.065  0.5123E-05  0.4800E+02
  25.075  0.4863E-05  0.4800E+02
  25.085  0.4616E-05  0.4800E+02
  25.095  0.4381E-05  0.4800E+02
  25.105  0.4158E-05  0.4800E+02
  25.115  0.3945E-05  0.4800E+02
  25.125  0.3743E-05  0.4800E+02
  25.135  0.3551E-05  0.4800E+02
  25.145  0.3368E-05  0.4800E+02
  25.155  0.3194E-05  0.4800E+02
  25.165  0.3028E-05  0.4800E+02
  25.175  0.2871E-05  0.4800E+02
  25.185  0.2722E-05  0.4800E+02
  25.195  0.2580E-05  0.4800E+02
  25.205  0.2445E-05  0.4800E+02
  25.215  0.2317E-05  0.4800E+02
  25.225  0.2195E-05  0.4800E+02
  25.235  0.2079E-05  0.4800E+02
  25.245  0.1969E-05  0.4800E+02
  25.255  0.1865E-05  0.4800E+02
  25.265  0.1766E-05  0.4800E+02
  25.275  0.1672E-05  0.4800E+02
  25.285  0.1583E-05  0.4800E+02
  25.295  0.1498E-05  0.4800E+02
  25.305  0.1418E-05  0.4800E+02
  25.315  0.1342E-05  0.4800E+02
  25.325  0.1269E-05  0.4800E+02
  25.335  0.1201E-05  0.4800E+02
  25.345  0.1136E-05  0.4800E+02
  25.355  0.1074E-05  0.4800E+02
  25.365  0.1016E-05  0.4800E+02
  25.375  0.9604E-06  0.4800E+02
  25.385  0.9079E-06  0.4800E+02
  25.395  0.8582E-06  0.4800E+02
  25.405  0.8110E-06  0.4800E+02
  25.415  0.7663E-06  0.4800E+02
  25.425  0.7240E-06  0.4800E+02
  25.435  0.6840E-06  0.4800E+02
