#  E (eV)   dos(E)     Int dos(E) EFermi =   10.812 eV
 -11.218  0.8912E-04  0.8912E-06
 -11.208  0.1448E-03  0.2339E-05
 -11.198  0.2330E-03  0.4669E-05
 -11.188  0.3711E-03  0.8380E-05
 -11.178  0.5852E-03  0.1423E-04
 -11.168  0.9138E-03  0.2337E-04
 -11.158  0.1413E-02  0.3750E-04
 -11.148  0.2163E-02  0.5913E-04
 -11.138  0.3279E-02  0.9191E-04
 -11.128  0.4921E-02  0.1411E-03
 -11.118  0.7314E-02  0.2143E-03
 -11.108  0.1076E-01  0.3219E-03
 -11.098  0.1569E-01  0.4788E-03
 -11.088  0.2264E-01  0.7052E-03
 -11.078  0.3236E-01  0.1029E-02
 -11.068  0.4579E-01  0.1487E-02
 -11.058  0.6419E-01  0.2129E-02
 -11.048  0.8910E-01  0.3020E-02
 -11.038  0.1225E+00  0.4244E-02
 -11.028  0.1668E+00  0.5912E-02
 -11.018  0.2250E+00  0.8162E-02
 -11.008  0.3005E+00  0.1117E-01
 -10.998  0.3977E+00  0.1514E-01
 -10.988  0.5214E+00  0.2036E-01
 -10.978  0.6771E+00  0.2713E-01
 -10.968  0.8713E+00  0.3584E-01
 -10.958  0.1111E+01  0.4695E-01
 -10.948  0.1403E+01  0.6098E-01
 -10.938  0.1757E+01  0.7855E-01
 -10.928  0.2179E+01  0.1003E+00
 -10.918  0.2680E+01  0.1271E+00
 -10.908  0.3267E+01  0.1598E+00
 -10.898  0.3948E+01  0.1993E+00
 -10.888  0.4730E+01  0.2466E+00
 -10.878  0.5620E+01  0.3028E+00
 -10.868  0.6623E+01  0.3690E+00
 -10.858  0.7741E+01  0.4464E+00
 -10.848  0.8977E+01  0.5362E+00
 -10.838  0.1033E+02  0.6395E+00
 -10.828  0.1180E+02  0.7574E+00
 -10.818  0.1337E+02  0.8912E+00
 -10.808  0.1505E+02  0.1042E+01
 -10.798  0.1682E+02  0.1210E+01
 -10.788  0.1867E+02  0.1397E+01
 -10.778  0.2060E+02  0.1603E+01
 -10.768  0.2258E+02  0.1828E+01
 -10.758  0.2461E+02  0.2074E+01
 -10.748  0.2666E+02  0.2341E+01
 -10.738  0.2873E+02  0.2628E+01
 -10.728  0.3080E+02  0.2936E+01
 -10.718  0.3285E+02  0.3265E+01
 -10.708  0.3488E+02  0.3614E+01
 -10.698  0.3687E+02  0.3982E+01
 -10.688  0.3880E+02  0.4370E+01
 -10.678  0.4066E+02  0.4777E+01
 -10.668  0.4245E+02  0.5202E+01
 -10.658  0.4415E+02  0.5643E+01
 -10.648  0.4574E+02  0.6100E+01
 -10.638  0.4722E+02  0.6573E+01
 -10.628  0.4857E+02  0.7058E+01
 -10.618  0.4979E+02  0.7556E+01
 -10.608  0.5085E+02  0.8065E+01
 -10.598  0.5175E+02  0.8582E+01
 -10.588  0.5248E+02  0.9107E+01
 -10.578  0.5301E+02  0.9637E+01
 -10.568  0.5335E+02  0.1017E+02
 -10.558  0.5347E+02  0.1071E+02
 -10.548  0.5338E+02  0.1124E+02
 -10.538  0.5306E+02  0.1177E+02
 -10.528  0.5252E+02  0.1229E+02
 -10.518  0.5175E+02  0.1281E+02
 -10.508  0.5075E+02  0.1332E+02
 -10.498  0.4954E+02  0.1382E+02
 -10.488  0.4812E+02  0.1430E+02
 -10.478  0.4651E+02  0.1476E+02
 -10.468  0.4473E+02  0.1521E+02
 -10.458  0.4278E+02  0.1564E+02
 -10.448  0.4071E+02  0.1604E+02
 -10.438  0.3852E+02  0.1643E+02
 -10.428  0.3626E+02  0.1679E+02
 -10.418  0.3393E+02  0.1713E+02
 -10.408  0.3158E+02  0.1745E+02
 -10.398  0.2922E+02  0.1774E+02
 -10.388  0.2688E+02  0.1801E+02
 -10.378  0.2458E+02  0.1825E+02
 -10.368  0.2235E+02  0.1848E+02
 -10.358  0.2019E+02  0.1868E+02
 -10.348  0.1814E+02  0.1886E+02
 -10.338  0.1619E+02  0.1902E+02
 -10.328  0.1436E+02  0.1917E+02
 -10.318  0.1266E+02  0.1929E+02
 -10.308  0.1109E+02  0.1940E+02
 -10.298  0.9654E+01  0.1950E+02
 -10.288  0.8347E+01  0.1958E+02
 -10.278  0.7169E+01  0.1965E+02
 -10.268  0.6117E+01  0.1972E+02
 -10.258  0.5183E+01  0.1977E+02
 -10.248  0.4361E+01  0.1981E+02
 -10.238  0.3644E+01  0.1985E+02
 -10.228  0.3023E+01  0.1988E+02
 -10.218  0.2489E+01  0.1990E+02
 -10.208  0.2035E+01  0.1992E+02
 -10.198  0.1651E+01  0.1994E+02
 -10.188  0.1329E+01  0.1995E+02
 -10.178  0.1062E+01  0.1996E+02
 -10.168  0.8417E+00  0.1997E+02
 -10.158  0.6618E+00  0.1998E+02
 -10.148  0.5162E+00  0.1998E+02
 -10.138  0.3993E+00  0.1999E+02
 -10.128  0.3064E+00  0.1999E+02
 -10.118  0.2330E+00  0.1999E+02
 -10.108  0.1758E+00  0.2000E+02
 -10.098  0.1314E+00  0.2000E+02
 -10.088  0.9743E-01  0.2000E+02
 -10.078  0.7158E-01  0.2000E+02
 -10.068  0.5213E-01  0.2000E+02
 -10.058  0.3762E-01  0.2000E+02
 -10.048  0.2691E-01  0.2000E+02
 -10.038  0.1907E-01  0.2000E+02
 -10.028  0.1339E-01  0.2000E+02
 -10.018  0.9314E-02  0.2000E+02
 -10.008  0.6420E-02  0.2000E+02
  -9.998  0.4383E-02  0.2000E+02
  -9.988  0.2964E-02  0.2000E+02
  -9.978  0.1986E-02  0.2000E+02
  -9.968  0.1318E-02  0.2000E+02
  -9.958  0.8658E-03  0.2000E+02
  -9.948  0.5635E-03  0.2000E+02
  -9.938  0.3632E-03  0.2000E+02
  -9.928  0.2318E-03  0.2000E+02
  -9.918  0.1465E-03  0.2000E+02
  -9.908  0.9170E-04  0.2000E+02
  -9.898  0.5683E-04  0.2000E+02
  -9.888  0.3487E-04  0.2000E+02
  -9.878  0.2118E-04  0.2000E+02
  -9.868  0.1274E-04  0.2000E+02
  -9.858  0.7587E-05  0.2000E+02
  -9.848  0.4473E-05  0.2000E+02
  -9.838  0.2611E-05  0.2000E+02
  -9.828  0.1508E-05  0.2000E+02
  -9.818  0.8628E-06  0.2000E+02
  -9.808  0.4886E-06  0.2000E+02
  -9.798  0.2738E-06  0.2000E+02
  -9.788  0.1519E-06  0.2000E+02
  -9.778  0.8344E-07  0.2000E+02
  -9.768  0.4536E-07  0.2000E+02
  -9.758  0.2441E-07  0.2000E+02
  -9.748  0.1300E-07  0.2000E+02
  -9.738  0.6853E-08  0.2000E+02
  -9.728  0.3575E-08  0.2000E+02
  -9.718  0.1846E-08  0.2000E+02
  -9.708  0.9438E-09  0.2000E+02
  -9.698  0.4774E-09  0.2000E+02
  -9.688  0.2390E-09  0.2000E+02
  -9.678  0.1184E-09  0.2000E+02
  -9.668  0.5808E-10  0.2000E+02
  -9.658  0.2819E-10  0.2000E+02
  -9.648  0.1354E-10  0.2000E+02
  -9.638  0.6436E-11  0.2000E+02
  -9.628  0.3028E-11  0.2000E+02
  -9.618  0.1410E-11  0.2000E+02
  -9.608  0.6494E-12  0.2000E+02
  -9.598  0.2961E-12  0.2000E+02
  -9.588  0.1336E-12  0.2000E+02
  -9.578  0.5965E-13  0.2000E+02
  -9.568  0.2636E-13  0.2000E+02
  -9.558  0.1152E-13  0.2000E+02
  -9.548  0.4987E-14  0.2000E+02
  -9.538  0.2135E-14  0.2000E+02
  -9.528  0.9046E-15  0.2000E+02
  -9.518  0.3793E-15  0.2000E+02
  -9.508  0.1574E-15  0.2000E+02
  -9.498  0.6460E-16  0.2000E+02
  -9.488  0.2624E-16  0.2000E+02
  -9.478  0.1055E-16  0.2000E+02
  -9.468  0.4196E-17  0.2000E+02
  -9.458  0.1652E-17  0.2000E+02
  -9.448  0.6433E-18  0.2000E+02
  -9.438  0.2479E-18  0.2000E+02
  -9.428  0.9453E-19  0.2000E+02
  -9.418  0.3567E-19  0.2000E+02
  -9.408  0.1332E-19  0.2000E+02
  -9.398  0.4920E-20  0.2000E+02
  -9.388  0.1798E-20  0.2000E+02
  -9.378  0.6504E-21  0.2000E+02
  -9.368  0.2328E-21  0.2000E+02
  -9.358  0.8242E-22  0.2000E+02
  -9.348  0.2888E-22  0.2000E+02
  -9.338  0.1001E-22  0.2000E+02
  -9.328  0.3434E-23  0.2000E+02
  -9.318  0.1165E-23  0.2000E+02
  -9.308  0.3913E-24  0.2000E+02
  -9.298  0.1300E-24  0.2000E+02
  -9.288  0.4274E-25  0.2000E+02
  -9.278  0.1390E-25  0.2000E+02
  -9.268  0.4474E-26  0.2000E+02
  -9.258  0.1425E-26  0.2000E+02
  -9.248  0.4489E-27  0.2000E+02
  -9.238  0.1399E-27  0.2000E+02
  -9.228  0.4316E-28  0.2000E+02
  -9.218  0.1317E-28  0.2000E+02
  -9.208  0.3976E-29  0.2000E+02
  -9.198  0.1188E-29  0.2000E+02
  -9.188  0.3510E-30  0.2000E+02
  -9.178  0.1027E-30  0.2000E+02
  -9.168  0.2970E-31  0.2000E+02
  -9.158  0.8501E-32  0.2000E+02
  -9.148  0.2408E-32  0.2000E+02
  -9.138  0.6747E-33  0.2000E+02
  -9.128  0.1870E-33  0.2000E+02
  -9.118  0.5130E-34  0.2000E+02
  -9.108  0.1392E-34  0.2000E+02
  -9.098  0.3738E-35  0.2000E+02
  -9.088  0.9930E-36  0.2000E+02
  -9.078  0.2610E-36  0.2000E+02
  -9.068  0.6787E-37  0.2000E+02
  -9.058  0.1746E-37  0.2000E+02
  -9.048  0.4444E-38  0.2000E+02
  -9.038  0.1119E-38  0.2000E+02
  -9.028  0.2788E-39  0.2000E+02
  -9.018  0.6873E-40  0.2000E+02
  -9.008  0.1676E-40  0.2000E+02
  -8.998  0.4044E-41  0.2000E+02
  -8.988  0.9653E-42  0.2000E+02
  -8.978  0.2280E-42  0.2000E+02
  -8.968  0.5327E-43  0.2000E+02
  -8.958  0.1231E-43  0.2000E+02
  -8.948  0.2816E-44  0.2000E+02
  -8.938  0.6373E-45  0.2000E+02
  -8.928  0.1427E-45  0.2000E+02
  -8.918  0.3160E-46  0.2000E+02
  -8.908  0.6923E-47  0.2000E+02
  -8.898  0.1501E-47  0.2000E+02
  -8.888  0.3219E-48  0.2000E+02
  -8.878  0.6830E-49  0.2000E+02
  -8.868  0.1434E-49  0.2000E+02
  -8.858  0.2978E-50  0.2000E+02
  -8.848  0.6118E-51  0.2000E+02
  -8.838  0.1244E-51  0.2000E+02
  -8.828  0.2501E-52  0.2000E+02
  -8.818  0.4977E-53  0.2000E+02
  -8.808  0.9796E-54  0.2000E+02
  -8.798  0.1908E-54  0.2000E+02
  -8.788  0.3676E-55  0.2000E+02
  -8.778  0.7006E-56  0.2000E+02
  -8.768  0.1321E-56  0.2000E+02
  -8.758  0.2465E-57  0.2000E+02
  -8.748  0.4550E-58  0.2000E+02
  -8.738  0.8308E-59  0.2000E+02
  -8.728  0.1501E-59  0.2000E+02
  -8.718  0.2682E-60  0.2000E+02
  -8.708  0.4743E-61  0.2000E+02
  -8.698  0.8297E-62  0.2000E+02
  -8.688  0.1436E-62  0.2000E+02
  -8.678  0.2458E-63  0.2000E+02
  -8.668  0.4164E-64  0.2000E+02
  -8.658  0.6978E-65  0.2000E+02
  -8.648  0.1157E-65  0.2000E+02
  -8.638  0.1898E-66  0.2000E+02
  -8.628  0.3079E-67  0.2000E+02
  -8.618  0.4943E-68  0.2000E+02
  -8.608  0.7849E-69  0.2000E+02
  -8.598  0.1233E-69  0.2000E+02
  -8.588  0.1917E-70  0.2000E+02
  -8.578  0.2948E-71  0.2000E+02
  -8.568  0.4485E-72  0.2000E+02
  -8.558  0.6750E-73  0.2000E+02
  -8.548  0.1005E-73  0.2000E+02
  -8.538  0.1480E-74  0.2000E+02
  -8.528  0.2157E-75  0.2000E+02
  -8.518  0.3110E-76  0.2000E+02
  -8.508  0.4437E-77  0.2000E+02
  -8.498  0.6260E-78  0.2000E+02
  -8.488  0.8739E-79  0.2000E+02
  -8.478  0.1207E-79  0.2000E+02
  -8.468  0.1649E-80  0.2000E+02
  -8.458  0.2232E-81  0.2000E+02
  -8.448  0.3008E-82  0.2000E+02
  -8.438  0.4216E-83  0.2000E+02
  -8.428  0.7897E-84  0.2000E+02
  -8.418  0.3411E-84  0.2000E+02
  -8.408  0.2833E-84  0.2000E+02
  -8.398  0.2762E-84  0.2000E+02
  -8.388  0.2755E-84  0.2000E+02
  -8.378  0.2755E-84  0.2000E+02
  -8.368  0.2755E-84  0.2000E+02
  -8.358  0.2755E-84  0.2000E+02
  -8.348  0.2755E-84  0.2000E+02
  -8.338  0.2755E-84  0.2000E+02
  -8.328  0.2755E-84  0.2000E+02
  -8.318  0.2755E-84  0.2000E+02
  -8.308  0.2755E-84  0.2000E+02
  -8.298  0.2755E-84  0.2000E+02
  -8.288  0.2755E-84  0.2000E+02
  -8.278  0.2755E-84  0.2000E+02
  -8.268  0.2755E-84  0.2000E+02
  -8.258  0.2755E-84  0.2000E+02
  -8.248  0.2755E-84  0.2000E+02
  -8.238  0.2755E-84  0.2000E+02
  -8.228  0.2755E-84  0.2000E+02
  -8.218  0.2755E-84  0.2000E+02
  -8.208  0.2755E-84  0.2000E+02
  -8.198  0.2755E-84  0.2000E+02
  -8.188  0.2755E-84  0.2000E+02
  -8.178  0.2755E-84  0.2000E+02
  -8.168  0.2755E-84  0.2000E+02
  -8.158  0.2755E-84  0.2000E+02
  -8.148  0.2755E-84  0.2000E+02
  -8.138  0.2755E-84  0.2000E+02
  -8.128  0.2755E-84  0.2000E+02
  -8.118  0.2755E-84  0.2000E+02
  -8.108  0.2755E-84  0.2000E+02
  -8.098  0.2755E-84  0.2000E+02
  -8.088  0.2755E-84  0.2000E+02
  -8.078  0.2755E-84  0.2000E+02
  -8.068  0.2755E-84  0.2000E+02
  -8.058  0.2755E-84  0.2000E+02
  -8.048  0.2755E-84  0.2000E+02
  -8.038  0.2755E-84  0.2000E+02
  -8.028  0.2755E-84  0.2000E+02
  -8.018  0.2755E-84  0.2000E+02
  -8.008  0.2755E-84  0.2000E+02
  -7.998  0.2755E-84  0.2000E+02
  -7.988  0.2755E-84  0.2000E+02
  -7.978  0.2755E-84  0.2000E+02
  -7.968  0.2755E-84  0.2000E+02
  -7.958  0.2755E-84  0.2000E+02
  -7.948  0.2755E-84  0.2000E+02
  -7.938  0.2755E-84  0.2000E+02
  -7.928  0.2755E-84  0.2000E+02
  -7.918  0.2755E-84  0.2000E+02
  -7.908  0.2755E-84  0.2000E+02
  -7.898  0.2755E-84  0.2000E+02
  -7.888  0.2755E-84  0.2000E+02
  -7.878  0.2755E-84  0.2000E+02
  -7.868  0.2755E-84  0.2000E+02
  -7.858  0.2755E-84  0.2000E+02
  -7.848  0.2755E-84  0.2000E+02
  -7.838  0.2755E-84  0.2000E+02
  -7.828  0.2755E-84  0.2000E+02
  -7.818  0.2755E-84  0.2000E+02
  -7.808  0.2755E-84  0.2000E+02
  -7.798  0.2755E-84  0.2000E+02
  -7.788  0.2755E-84  0.2000E+02
  -7.778  0.2755E-84  0.2000E+02
  -7.768  0.2755E-84  0.2000E+02
  -7.758  0.2755E-84  0.2000E+02
  -7.748  0.2755E-84  0.2000E+02
  -7.738  0.2755E-84  0.2000E+02
  -7.728  0.2755E-84  0.2000E+02
  -7.718  0.2755E-84  0.2000E+02
  -7.708  0.2755E-84  0.2000E+02
  -7.698  0.2755E-84  0.2000E+02
  -7.688  0.2755E-84  0.2000E+02
  -7.678  0.2755E-84  0.2000E+02
  -7.668  0.2755E-84  0.2000E+02
  -7.658  0.2755E-84  0.2000E+02
  -7.648  0.2755E-84  0.2000E+02
  -7.638  0.2755E-84  0.2000E+02
  -7.628  0.2755E-84  0.2000E+02
  -7.618  0.2755E-84  0.2000E+02
  -7.608  0.2755E-84  0.2000E+02
  -7.598  0.2755E-84  0.2000E+02
  -7.588  0.2755E-84  0.2000E+02
  -7.578  0.2755E-84  0.2000E+02
  -7.568  0.2755E-84  0.2000E+02
  -7.558  0.2755E-84  0.2000E+02
  -7.548  0.2755E-84  0.2000E+02
  -7.538  0.2755E-84  0.2000E+02
  -7.528  0.2755E-84  0.2000E+02
  -7.518  0.2755E-84  0.2000E+02
  -7.508  0.2755E-84  0.2000E+02
  -7.498  0.2755E-84  0.2000E+02
  -7.488  0.2755E-84  0.2000E+02
  -7.478  0.2755E-84  0.2000E+02
  -7.468  0.2755E-84  0.2000E+02
  -7.458  0.2755E-84  0.2000E+02
  -7.448  0.2755E-84  0.2000E+02
  -7.438  0.2755E-84  0.2000E+02
  -7.428  0.2755E-84  0.2000E+02
  -7.418  0.2755E-84  0.2000E+02
  -7.408  0.2755E-84  0.2000E+02
  -7.398  0.2755E-84  0.2000E+02
  -7.388  0.2755E-84  0.2000E+02
  -7.378  0.2755E-84  0.2000E+02
  -7.368  0.2755E-84  0.2000E+02
  -7.358  0.2755E-84  0.2000E+02
  -7.348  0.2755E-84  0.2000E+02
  -7.338  0.2755E-84  0.2000E+02
  -7.328  0.2755E-84  0.2000E+02
  -7.318  0.2755E-84  0.2000E+02
  -7.308  0.2755E-84  0.2000E+02
  -7.298  0.2755E-84  0.2000E+02
  -7.288  0.2755E-84  0.2000E+02
  -7.278  0.2755E-84  0.2000E+02
  -7.268  0.2755E-84  0.2000E+02
  -7.258  0.2755E-84  0.2000E+02
  -7.248  0.2755E-84  0.2000E+02
  -7.238  0.2755E-84  0.2000E+02
  -7.228  0.2755E-84  0.2000E+02
  -7.218  0.2755E-84  0.2000E+02
  -7.208  0.2755E-84  0.2000E+02
  -7.198  0.2755E-84  0.2000E+02
  -7.188  0.2755E-84  0.2000E+02
  -7.178  0.2755E-84  0.2000E+02
  -7.168  0.2755E-84  0.2000E+02
  -7.158  0.2755E-84  0.2000E+02
  -7.148  0.2755E-84  0.2000E+02
  -7.138  0.2755E-84  0.2000E+02
  -7.128  0.2755E-84  0.2000E+02
  -7.118  0.2755E-84  0.2000E+02
  -7.108  0.2755E-84  0.2000E+02
  -7.098  0.2755E-84  0.2000E+02
  -7.088  0.2755E-84  0.2000E+02
  -7.078  0.2755E-84  0.2000E+02
  -7.068  0.2755E-84  0.2000E+02
  -7.058  0.2755E-84  0.2000E+02
  -7.048  0.2755E-84  0.2000E+02
  -7.038  0.2755E-84  0.2000E+02
  -7.028  0.2755E-84  0.2000E+02
  -7.018  0.2755E-84  0.2000E+02
  -7.008  0.2755E-84  0.2000E+02
  -6.998  0.2755E-84  0.2000E+02
  -6.988  0.2755E-84  0.2000E+02
  -6.978  0.2755E-84  0.2000E+02
  -6.968  0.2755E-84  0.2000E+02
  -6.958  0.2755E-84  0.2000E+02
  -6.948  0.2755E-84  0.2000E+02
  -6.938  0.2755E-84  0.2000E+02
  -6.928  0.2755E-84  0.2000E+02
  -6.918  0.2755E-84  0.2000E+02
  -6.908  0.2755E-84  0.2000E+02
  -6.898  0.2755E-84  0.2000E+02
  -6.888  0.2755E-84  0.2000E+02
  -6.878  0.2755E-84  0.2000E+02
  -6.868  0.2755E-84  0.2000E+02
  -6.858  0.2755E-84  0.2000E+02
  -6.848  0.2755E-84  0.2000E+02
  -6.838  0.2755E-84  0.2000E+02
  -6.828  0.2755E-84  0.2000E+02
  -6.818  0.2755E-84  0.2000E+02
  -6.808  0.2755E-84  0.2000E+02
  -6.798  0.2755E-84  0.2000E+02
  -6.788  0.2755E-84  0.2000E+02
  -6.778  0.2755E-84  0.2000E+02
  -6.768  0.2755E-84  0.2000E+02
  -6.758  0.2755E-84  0.2000E+02
  -6.748  0.2755E-84  0.2000E+02
  -6.738  0.2755E-84  0.2000E+02
  -6.728  0.2755E-84  0.2000E+02
  -6.718  0.2755E-84  0.2000E+02
  -6.708  0.2755E-84  0.2000E+02
  -6.698  0.2755E-84  0.2000E+02
  -6.688  0.2755E-84  0.2000E+02
  -6.678  0.2755E-84  0.2000E+02
  -6.668  0.2755E-84  0.2000E+02
  -6.658  0.2755E-84  0.2000E+02
  -6.648  0.2755E-84  0.2000E+02
  -6.638  0.2755E-84  0.2000E+02
  -6.628  0.2755E-84  0.2000E+02
  -6.618  0.2755E-84  0.2000E+02
  -6.608  0.2755E-84  0.2000E+02
  -6.598  0.2755E-84  0.2000E+02
  -6.588  0.2755E-84  0.2000E+02
  -6.578  0.2755E-84  0.2000E+02
  -6.568  0.2755E-84  0.2000E+02
  -6.558  0.2755E-84  0.2000E+02
  -6.548  0.2755E-84  0.2000E+02
  -6.538  0.2755E-84  0.2000E+02
  -6.528  0.2755E-84  0.2000E+02
  -6.518  0.2755E-84  0.2000E+02
  -6.508  0.2755E-84  0.2000E+02
  -6.498  0.2755E-84  0.2000E+02
  -6.488  0.2755E-84  0.2000E+02
  -6.478  0.2755E-84  0.2000E+02
  -6.468  0.2755E-84  0.2000E+02
  -6.458  0.2755E-84  0.2000E+02
  -6.448  0.2755E-84  0.2000E+02
  -6.438  0.2755E-84  0.2000E+02
  -6.428  0.2755E-84  0.2000E+02
  -6.418  0.2755E-84  0.2000E+02
  -6.408  0.2755E-84  0.2000E+02
  -6.398  0.2755E-84  0.2000E+02
  -6.388  0.2755E-84  0.2000E+02
  -6.378  0.2755E-84  0.2000E+02
  -6.368  0.2755E-84  0.2000E+02
  -6.358  0.2755E-84  0.2000E+02
  -6.348  0.2755E-84  0.2000E+02
  -6.338  0.2755E-84  0.2000E+02
  -6.328  0.2755E-84  0.2000E+02
  -6.318  0.2755E-84  0.2000E+02
  -6.308  0.2755E-84  0.2000E+02
  -6.298  0.2755E-84  0.2000E+02
  -6.288  0.2755E-84  0.2000E+02
  -6.278  0.2755E-84  0.2000E+02
  -6.268  0.2755E-84  0.2000E+02
  -6.258  0.2755E-84  0.2000E+02
  -6.248  0.2755E-84  0.2000E+02
  -6.238  0.2755E-84  0.2000E+02
  -6.228  0.2755E-84  0.2000E+02
  -6.218  0.2755E-84  0.2000E+02
  -6.208  0.2755E-84  0.2000E+02
  -6.198  0.2755E-84  0.2000E+02
  -6.188  0.2755E-84  0.2000E+02
  -6.178  0.2755E-84  0.2000E+02
  -6.168  0.2755E-84  0.2000E+02
  -6.158  0.2755E-84  0.2000E+02
  -6.148  0.2755E-84  0.2000E+02
  -6.138  0.2755E-84  0.2000E+02
  -6.128  0.2755E-84  0.2000E+02
  -6.118  0.2755E-84  0.2000E+02
  -6.108  0.2755E-84  0.2000E+02
  -6.098  0.2755E-84  0.2000E+02
  -6.088  0.2755E-84  0.2000E+02
  -6.078  0.2755E-84  0.2000E+02
  -6.068  0.2755E-84  0.2000E+02
  -6.058  0.2755E-84  0.2000E+02
  -6.048  0.2755E-84  0.2000E+02
  -6.038  0.2755E-84  0.2000E+02
  -6.028  0.2755E-84  0.2000E+02
  -6.018  0.2755E-84  0.2000E+02
  -6.008  0.2755E-84  0.2000E+02
  -5.998  0.2755E-84  0.2000E+02
  -5.988  0.2755E-84  0.2000E+02
  -5.978  0.2755E-84  0.2000E+02
  -5.968  0.2755E-84  0.2000E+02
  -5.958  0.2755E-84  0.2000E+02
  -5.948  0.2755E-84  0.2000E+02
  -5.938  0.2755E-84  0.2000E+02
  -5.928  0.2755E-84  0.2000E+02
  -5.918  0.2755E-84  0.2000E+02
  -5.908  0.2755E-84  0.2000E+02
  -5.898  0.2755E-84  0.2000E+02
  -5.888  0.2755E-84  0.2000E+02
  -5.878  0.2755E-84  0.2000E+02
  -5.868  0.2755E-84  0.2000E+02
  -5.858  0.2755E-84  0.2000E+02
  -5.848  0.2755E-84  0.2000E+02
  -5.838  0.2755E-84  0.2000E+02
  -5.828  0.2755E-84  0.2000E+02
  -5.818  0.2755E-84  0.2000E+02
  -5.808  0.2755E-84  0.2000E+02
  -5.798  0.2755E-84  0.2000E+02
  -5.788  0.2755E-84  0.2000E+02
  -5.778  0.2755E-84  0.2000E+02
  -5.768  0.2755E-84  0.2000E+02
  -5.758  0.2755E-84  0.2000E+02
  -5.748  0.2755E-84  0.2000E+02
  -5.738  0.2755E-84  0.2000E+02
  -5.728  0.2755E-84  0.2000E+02
  -5.718  0.2755E-84  0.2000E+02
  -5.708  0.2755E-84  0.2000E+02
  -5.698  0.2755E-84  0.2000E+02
  -5.688  0.2755E-84  0.2000E+02
  -5.678  0.2755E-84  0.2000E+02
  -5.668  0.2755E-84  0.2000E+02
  -5.658  0.2755E-84  0.2000E+02
  -5.648  0.2755E-84  0.2000E+02
  -5.638  0.2755E-84  0.2000E+02
  -5.628  0.2755E-84  0.2000E+02
  -5.618  0.2755E-84  0.2000E+02
  -5.608  0.2755E-84  0.2000E+02
  -5.598  0.2755E-84  0.2000E+02
  -5.588  0.2755E-84  0.2000E+02
  -5.578  0.2755E-84  0.2000E+02
  -5.568  0.2755E-84  0.2000E+02
  -5.558  0.2755E-84  0.2000E+02
  -5.548  0.2755E-84  0.2000E+02
  -5.538  0.2755E-84  0.2000E+02
  -5.528  0.2755E-84  0.2000E+02
  -5.518  0.2755E-84  0.2000E+02
  -5.508  0.2755E-84  0.2000E+02
  -5.498  0.2755E-84  0.2000E+02
  -5.488  0.2755E-84  0.2000E+02
  -5.478  0.2755E-84  0.2000E+02
  -5.468  0.2755E-84  0.2000E+02
  -5.458  0.2755E-84  0.2000E+02
  -5.448  0.2755E-84  0.2000E+02
  -5.438  0.2755E-84  0.2000E+02
  -5.428  0.2755E-84  0.2000E+02
  -5.418  0.2755E-84  0.2000E+02
  -5.408  0.2755E-84  0.2000E+02
  -5.398  0.2755E-84  0.2000E+02
  -5.388  0.2755E-84  0.2000E+02
  -5.378  0.2755E-84  0.2000E+02
  -5.368  0.2755E-84  0.2000E+02
  -5.358  0.2755E-84  0.2000E+02
  -5.348  0.2755E-84  0.2000E+02
  -5.338  0.2755E-84  0.2000E+02
  -5.328  0.2755E-84  0.2000E+02
  -5.318  0.2755E-84  0.2000E+02
  -5.308  0.2755E-84  0.2000E+02
  -5.298  0.2755E-84  0.2000E+02
  -5.288  0.2755E-84  0.2000E+02
  -5.278  0.2755E-84  0.2000E+02
  -5.268  0.2755E-84  0.2000E+02
  -5.258  0.2755E-84  0.2000E+02
  -5.248  0.2755E-84  0.2000E+02
  -5.238  0.2755E-84  0.2000E+02
  -5.228  0.2755E-84  0.2000E+02
  -5.218  0.2755E-84  0.2000E+02
  -5.208  0.2755E-84  0.2000E+02
  -5.198  0.2755E-84  0.2000E+02
  -5.188  0.2755E-84  0.2000E+02
  -5.178  0.2755E-84  0.2000E+02
  -5.168  0.2755E-84  0.2000E+02
  -5.158  0.2755E-84  0.2000E+02
  -5.148  0.2755E-84  0.2000E+02
  -5.138  0.2755E-84  0.2000E+02
  -5.128  0.2755E-84  0.2000E+02
  -5.118  0.2755E-84  0.2000E+02
  -5.108  0.2755E-84  0.2000E+02
  -5.098  0.2755E-84  0.2000E+02
  -5.088  0.2755E-84  0.2000E+02
  -5.078  0.2755E-84  0.2000E+02
  -5.068  0.2755E-84  0.2000E+02
  -5.058  0.2755E-84  0.2000E+02
  -5.048  0.2755E-84  0.2000E+02
  -5.038  0.2755E-84  0.2000E+02
  -5.028  0.2755E-84  0.2000E+02
  -5.018  0.2755E-84  0.2000E+02
  -5.008  0.2755E-84  0.2000E+02
  -4.998  0.2755E-84  0.2000E+02
  -4.988  0.2755E-84  0.2000E+02
  -4.978  0.2755E-84  0.2000E+02
  -4.968  0.2755E-84  0.2000E+02
  -4.958  0.2755E-84  0.2000E+02
  -4.948  0.2755E-84  0.2000E+02
  -4.938  0.2755E-84  0.2000E+02
  -4.928  0.2755E-84  0.2000E+02
  -4.918  0.2755E-84  0.2000E+02
  -4.908  0.2755E-84  0.2000E+02
  -4.898  0.2755E-84  0.2000E+02
  -4.888  0.2755E-84  0.2000E+02
  -4.878  0.2755E-84  0.2000E+02
  -4.868  0.2755E-84  0.2000E+02
  -4.858  0.2755E-84  0.2000E+02
  -4.848  0.2755E-84  0.2000E+02
  -4.838  0.2755E-84  0.2000E+02
  -4.828  0.2755E-84  0.2000E+02
  -4.818  0.2755E-84  0.2000E+02
  -4.808  0.2755E-84  0.2000E+02
  -4.798  0.2755E-84  0.2000E+02
  -4.788  0.2755E-84  0.2000E+02
  -4.778  0.2755E-84  0.2000E+02
  -4.768  0.2755E-84  0.2000E+02
  -4.758  0.2755E-84  0.2000E+02
  -4.748  0.2755E-84  0.2000E+02
  -4.738  0.2755E-84  0.2000E+02
  -4.728  0.2755E-84  0.2000E+02
  -4.718  0.2755E-84  0.2000E+02
  -4.708  0.2755E-84  0.2000E+02
  -4.698  0.2755E-84  0.2000E+02
  -4.688  0.2755E-84  0.2000E+02
  -4.678  0.2755E-84  0.2000E+02
  -4.668  0.2755E-84  0.2000E+02
  -4.658  0.2755E-84  0.2000E+02
  -4.648  0.2755E-84  0.2000E+02
  -4.638  0.2755E-84  0.2000E+02
  -4.628  0.2755E-84  0.2000E+02
  -4.618  0.2755E-84  0.2000E+02
  -4.608  0.2755E-84  0.2000E+02
  -4.598  0.2755E-84  0.2000E+02
  -4.588  0.2755E-84  0.2000E+02
  -4.578  0.2755E-84  0.2000E+02
  -4.568  0.2755E-84  0.2000E+02
  -4.558  0.2755E-84  0.2000E+02
  -4.548  0.2755E-84  0.2000E+02
  -4.538  0.2755E-84  0.2000E+02
  -4.528  0.2755E-84  0.2000E+02
  -4.518  0.2755E-84  0.2000E+02
  -4.508  0.2755E-84  0.2000E+02
  -4.498  0.2755E-84  0.2000E+02
  -4.488  0.2755E-84  0.2000E+02
  -4.478  0.2755E-84  0.2000E+02
  -4.468  0.2755E-84  0.2000E+02
  -4.458  0.2755E-84  0.2000E+02
  -4.448  0.2755E-84  0.2000E+02
  -4.438  0.2755E-84  0.2000E+02
  -4.428  0.2755E-84  0.2000E+02
  -4.418  0.2755E-84  0.2000E+02
  -4.408  0.2755E-84  0.2000E+02
  -4.398  0.2755E-84  0.2000E+02
  -4.388  0.2755E-84  0.2000E+02
  -4.378  0.2755E-84  0.2000E+02
  -4.368  0.2755E-84  0.2000E+02
  -4.358  0.2755E-84  0.2000E+02
  -4.348  0.2755E-84  0.2000E+02
  -4.338  0.2755E-84  0.2000E+02
  -4.328  0.2755E-84  0.2000E+02
  -4.318  0.2755E-84  0.2000E+02
  -4.308  0.2755E-84  0.2000E+02
  -4.298  0.2755E-84  0.2000E+02
  -4.288  0.2755E-84  0.2000E+02
  -4.278  0.2755E-84  0.2000E+02
  -4.268  0.2755E-84  0.2000E+02
  -4.258  0.2755E-84  0.2000E+02
  -4.248  0.2755E-84  0.2000E+02
  -4.238  0.2755E-84  0.2000E+02
  -4.228  0.2755E-84  0.2000E+02
  -4.218  0.2755E-84  0.2000E+02
  -4.208  0.2755E-84  0.2000E+02
  -4.198  0.2755E-84  0.2000E+02
  -4.188  0.2755E-84  0.2000E+02
  -4.178  0.2755E-84  0.2000E+02
  -4.168  0.2755E-84  0.2000E+02
  -4.158  0.2755E-84  0.2000E+02
  -4.148  0.2755E-84  0.2000E+02
  -4.138  0.2755E-84  0.2000E+02
  -4.128  0.2755E-84  0.2000E+02
  -4.118  0.2755E-84  0.2000E+02
  -4.108  0.2755E-84  0.2000E+02
  -4.098  0.2755E-84  0.2000E+02
  -4.088  0.2755E-84  0.2000E+02
  -4.078  0.2755E-84  0.2000E+02
  -4.068  0.2755E-84  0.2000E+02
  -4.058  0.2755E-84  0.2000E+02
  -4.048  0.2755E-84  0.2000E+02
  -4.038  0.2755E-84  0.2000E+02
  -4.028  0.2755E-84  0.2000E+02
  -4.018  0.2755E-84  0.2000E+02
  -4.008  0.2755E-84  0.2000E+02
  -3.998  0.2755E-84  0.2000E+02
  -3.988  0.2755E-84  0.2000E+02
  -3.978  0.2755E-84  0.2000E+02
  -3.968  0.2755E-84  0.2000E+02
  -3.958  0.2755E-84  0.2000E+02
  -3.948  0.2755E-84  0.2000E+02
  -3.938  0.2755E-84  0.2000E+02
  -3.928  0.2755E-84  0.2000E+02
  -3.918  0.2755E-84  0.2000E+02
  -3.908  0.2755E-84  0.2000E+02
  -3.898  0.2755E-84  0.2000E+02
  -3.888  0.2755E-84  0.2000E+02
  -3.878  0.2755E-84  0.2000E+02
  -3.868  0.2755E-84  0.2000E+02
  -3.858  0.2755E-84  0.2000E+02
  -3.848  0.2755E-84  0.2000E+02
  -3.838  0.2755E-84  0.2000E+02
  -3.828  0.2755E-84  0.2000E+02
  -3.818  0.2755E-84  0.2000E+02
  -3.808  0.2755E-84  0.2000E+02
  -3.798  0.2755E-84  0.2000E+02
  -3.788  0.2755E-84  0.2000E+02
  -3.778  0.2755E-84  0.2000E+02
  -3.768  0.2755E-84  0.2000E+02
  -3.758  0.2755E-84  0.2000E+02
  -3.748  0.2755E-84  0.2000E+02
  -3.738  0.2755E-84  0.2000E+02
  -3.728  0.2755E-84  0.2000E+02
  -3.718  0.2755E-84  0.2000E+02
  -3.708  0.2755E-84  0.2000E+02
  -3.698  0.2755E-84  0.2000E+02
  -3.688  0.2755E-84  0.2000E+02
  -3.678  0.2755E-84  0.2000E+02
  -3.668  0.2755E-84  0.2000E+02
  -3.658  0.2755E-84  0.2000E+02
  -3.648  0.2755E-84  0.2000E+02
  -3.638  0.2755E-84  0.2000E+02
  -3.628  0.2755E-84  0.2000E+02
  -3.618  0.2755E-84  0.2000E+02
  -3.608  0.2755E-84  0.2000E+02
  -3.598  0.2755E-84  0.2000E+02
  -3.588  0.2755E-84  0.2000E+02
  -3.578  0.2755E-84  0.2000E+02
  -3.568  0.2755E-84  0.2000E+02
  -3.558  0.2755E-84  0.2000E+02
  -3.548  0.2755E-84  0.2000E+02
  -3.538  0.2755E-84  0.2000E+02
  -3.528  0.2755E-84  0.2000E+02
  -3.518  0.2755E-84  0.2000E+02
  -3.508  0.2755E-84  0.2000E+02
  -3.498  0.2755E-84  0.2000E+02
  -3.488  0.2755E-84  0.2000E+02
  -3.478  0.2755E-84  0.2000E+02
  -3.468  0.2755E-84  0.2000E+02
  -3.458  0.2755E-84  0.2000E+02
  -3.448  0.2755E-84  0.2000E+02
  -3.438  0.2755E-84  0.2000E+02
  -3.428  0.2755E-84  0.2000E+02
  -3.418  0.2755E-84  0.2000E+02
  -3.408  0.2755E-84  0.2000E+02
  -3.398  0.2755E-84  0.2000E+02
  -3.388  0.2755E-84  0.2000E+02
  -3.378  0.2755E-84  0.2000E+02
  -3.368  0.2755E-84  0.2000E+02
  -3.358  0.2755E-84  0.2000E+02
  -3.348  0.2755E-84  0.2000E+02
  -3.338  0.2755E-84  0.2000E+02
  -3.328  0.2755E-84  0.2000E+02
  -3.318  0.2755E-84  0.2000E+02
  -3.308  0.2755E-84  0.2000E+02
  -3.298  0.2755E-84  0.2000E+02
  -3.288  0.2755E-84  0.2000E+02
  -3.278  0.2755E-84  0.2000E+02
  -3.268  0.2755E-84  0.2000E+02
  -3.258  0.2755E-84  0.2000E+02
  -3.248  0.2755E-84  0.2000E+02
  -3.238  0.2755E-84  0.2000E+02
  -3.228  0.2755E-84  0.2000E+02
  -3.218  0.2755E-84  0.2000E+02
  -3.208  0.2755E-84  0.2000E+02
  -3.198  0.2755E-84  0.2000E+02
  -3.188  0.2755E-84  0.2000E+02
  -3.178  0.2755E-84  0.2000E+02
  -3.168  0.2755E-84  0.2000E+02
  -3.158  0.2755E-84  0.2000E+02
  -3.148  0.2755E-84  0.2000E+02
  -3.138  0.2755E-84  0.2000E+02
  -3.128  0.2755E-84  0.2000E+02
  -3.118  0.2755E-84  0.2000E+02
  -3.108  0.2755E-84  0.2000E+02
  -3.098  0.2755E-84  0.2000E+02
  -3.088  0.2755E-84  0.2000E+02
  -3.078  0.2755E-84  0.2000E+02
  -3.068  0.2755E-84  0.2000E+02
  -3.058  0.2755E-84  0.2000E+02
  -3.048  0.2755E-84  0.2000E+02
  -3.038  0.2755E-84  0.2000E+02
  -3.028  0.2755E-84  0.2000E+02
  -3.018  0.2755E-84  0.2000E+02
  -3.008  0.2755E-84  0.2000E+02
  -2.998  0.2755E-84  0.2000E+02
  -2.988  0.2755E-84  0.2000E+02
  -2.978  0.2755E-84  0.2000E+02
  -2.968  0.2755E-84  0.2000E+02
  -2.958  0.2755E-84  0.2000E+02
  -2.948  0.2755E-84  0.2000E+02
  -2.938  0.2755E-84  0.2000E+02
  -2.928  0.2755E-84  0.2000E+02
  -2.918  0.2755E-84  0.2000E+02
  -2.908  0.2755E-84  0.2000E+02
  -2.898  0.2755E-84  0.2000E+02
  -2.888  0.2755E-84  0.2000E+02
  -2.878  0.2755E-84  0.2000E+02
  -2.868  0.2755E-84  0.2000E+02
  -2.858  0.2755E-84  0.2000E+02
  -2.848  0.2755E-84  0.2000E+02
  -2.838  0.2755E-84  0.2000E+02
  -2.828  0.2755E-84  0.2000E+02
  -2.818  0.2755E-84  0.2000E+02
  -2.808  0.2755E-84  0.2000E+02
  -2.798  0.2755E-84  0.2000E+02
  -2.788  0.2755E-84  0.2000E+02
  -2.778  0.2755E-84  0.2000E+02
  -2.768  0.2755E-84  0.2000E+02
  -2.758  0.2755E-84  0.2000E+02
  -2.748  0.2755E-84  0.2000E+02
  -2.738  0.2755E-84  0.2000E+02
  -2.728  0.2755E-84  0.2000E+02
  -2.718  0.2755E-84  0.2000E+02
  -2.708  0.2755E-84  0.2000E+02
  -2.698  0.2755E-84  0.2000E+02
  -2.688  0.2755E-84  0.2000E+02
  -2.678  0.2755E-84  0.2000E+02
  -2.668  0.2755E-84  0.2000E+02
  -2.658  0.2755E-84  0.2000E+02
  -2.648  0.2755E-84  0.2000E+02
  -2.638  0.2755E-84  0.2000E+02
  -2.628  0.2755E-84  0.2000E+02
  -2.618  0.2755E-84  0.2000E+02
  -2.608  0.2755E-84  0.2000E+02
  -2.598  0.2755E-84  0.2000E+02
  -2.588  0.2755E-84  0.2000E+02
  -2.578  0.2755E-84  0.2000E+02
  -2.568  0.2755E-84  0.2000E+02
  -2.558  0.2755E-84  0.2000E+02
  -2.548  0.2755E-84  0.2000E+02
  -2.538  0.2755E-84  0.2000E+02
  -2.528  0.2755E-84  0.2000E+02
  -2.518  0.2755E-84  0.2000E+02
  -2.508  0.2755E-84  0.2000E+02
  -2.498  0.2755E-84  0.2000E+02
  -2.488  0.2755E-84  0.2000E+02
  -2.478  0.2755E-84  0.2000E+02
  -2.468  0.2755E-84  0.2000E+02
  -2.458  0.2755E-84  0.2000E+02
  -2.448  0.2755E-84  0.2000E+02
  -2.438  0.2755E-84  0.2000E+02
  -2.428  0.2755E-84  0.2000E+02
  -2.418  0.2755E-84  0.2000E+02
  -2.408  0.2755E-84  0.2000E+02
  -2.398  0.2755E-84  0.2000E+02
  -2.388  0.2755E-84  0.2000E+02
  -2.378  0.2755E-84  0.2000E+02
  -2.368  0.2755E-84  0.2000E+02
  -2.358  0.2755E-84  0.2000E+02
  -2.348  0.2755E-84  0.2000E+02
  -2.338  0.2755E-84  0.2000E+02
  -2.328  0.2755E-84  0.2000E+02
  -2.318  0.2755E-84  0.2000E+02
  -2.308  0.2755E-84  0.2000E+02
  -2.298  0.2755E-84  0.2000E+02
  -2.288  0.2755E-84  0.2000E+02
  -2.278  0.2755E-84  0.2000E+02
  -2.268  0.2755E-84  0.2000E+02
  -2.258  0.2756E-84  0.2000E+02
  -2.248  0.2764E-84  0.2000E+02
  -2.238  0.2825E-84  0.2000E+02
  -2.228  0.3297E-84  0.2000E+02
  -2.218  0.6861E-84  0.2000E+02
  -2.208  0.3349E-83  0.2000E+02
  -2.198  0.2304E-82  0.2000E+02
  -2.188  0.1670E-81  0.2000E+02
  -2.178  0.1208E-80  0.2000E+02
  -2.168  0.8659E-80  0.2000E+02
  -2.158  0.6140E-79  0.2000E+02
  -2.148  0.4307E-78  0.2000E+02
  -2.138  0.2989E-77  0.2000E+02
  -2.128  0.2052E-76  0.2000E+02
  -2.118  0.1393E-75  0.2000E+02
  -2.108  0.9361E-75  0.2000E+02
  -2.098  0.6222E-74  0.2000E+02
  -2.088  0.4090E-73  0.2000E+02
  -2.078  0.2660E-72  0.2000E+02
  -2.068  0.1712E-71  0.2000E+02
  -2.058  0.1089E-70  0.2000E+02
  -2.048  0.6860E-70  0.2000E+02
  -2.038  0.4273E-69  0.2000E+02
  -2.028  0.2633E-68  0.2000E+02
  -2.018  0.1605E-67  0.2000E+02
  -2.008  0.9679E-67  0.2000E+02
  -1.998  0.5774E-66  0.2000E+02
  -1.988  0.3407E-65  0.2000E+02
  -1.978  0.1989E-64  0.2000E+02
  -1.968  0.1149E-63  0.2000E+02
  -1.958  0.6564E-63  0.2000E+02
  -1.948  0.3710E-62  0.2000E+02
  -1.938  0.2074E-61  0.2000E+02
  -1.928  0.1147E-60  0.2000E+02
  -1.918  0.6277E-60  0.2000E+02
  -1.908  0.3398E-59  0.2000E+02
  -1.898  0.1819E-58  0.2000E+02
  -1.888  0.9638E-58  0.2000E+02
  -1.878  0.5051E-57  0.2000E+02
  -1.868  0.2618E-56  0.2000E+02
  -1.858  0.1343E-55  0.2000E+02
  -1.848  0.6812E-55  0.2000E+02
  -1.838  0.3419E-54  0.2000E+02
  -1.828  0.1697E-53  0.2000E+02
  -1.818  0.8337E-53  0.2000E+02
  -1.808  0.4051E-52  0.2000E+02
  -1.798  0.1947E-51  0.2000E+02
  -1.788  0.9258E-51  0.2000E+02
  -1.778  0.4355E-50  0.2000E+02
  -1.768  0.2027E-49  0.2000E+02
  -1.758  0.9329E-49  0.2000E+02
  -1.748  0.4248E-48  0.2000E+02
  -1.738  0.1914E-47  0.2000E+02
  -1.728  0.8530E-47  0.2000E+02
  -1.718  0.3761E-46  0.2000E+02
  -1.708  0.1640E-45  0.2000E+02
  -1.698  0.7077E-45  0.2000E+02
  -1.688  0.3021E-44  0.2000E+02
  -1.678  0.1276E-43  0.2000E+02
  -1.668  0.5328E-43  0.2000E+02
  -1.658  0.2202E-42  0.2000E+02
  -1.648  0.9002E-42  0.2000E+02
  -1.638  0.3640E-41  0.2000E+02
  -1.628  0.1456E-40  0.2000E+02
  -1.618  0.5764E-40  0.2000E+02
  -1.608  0.2257E-39  0.2000E+02
  -1.598  0.8742E-39  0.2000E+02
  -1.588  0.3350E-38  0.2000E+02
  -1.578  0.1270E-37  0.2000E+02
  -1.568  0.4762E-37  0.2000E+02
  -1.558  0.1767E-36  0.2000E+02
  -1.548  0.6484E-36  0.2000E+02
  -1.538  0.2354E-35  0.2000E+02
  -1.528  0.8455E-35  0.2000E+02
  -1.518  0.3004E-34  0.2000E+02
  -1.508  0.1056E-33  0.2000E+02
  -1.498  0.3672E-33  0.2000E+02
  -1.488  0.1263E-32  0.2000E+02
  -1.478  0.4300E-32  0.2000E+02
  -1.468  0.1448E-31  0.2000E+02
  -1.458  0.4822E-31  0.2000E+02
  -1.448  0.1589E-30  0.2000E+02
  -1.438  0.5179E-30  0.2000E+02
  -1.428  0.1670E-29  0.2000E+02
  -1.418  0.5329E-29  0.2000E+02
  -1.408  0.1682E-28  0.2000E+02
  -1.398  0.5252E-28  0.2000E+02
  -1.388  0.1622E-27  0.2000E+02
  -1.378  0.4958E-27  0.2000E+02
  -1.368  0.1499E-26  0.2000E+02
  -1.358  0.4484E-26  0.2000E+02
  -1.348  0.1327E-25  0.2000E+02
  -1.338  0.3884E-25  0.2000E+02
  -1.328  0.1125E-24  0.2000E+02
  -1.318  0.3223E-24  0.2000E+02
  -1.308  0.9136E-24  0.2000E+02
  -1.298  0.2562E-23  0.2000E+02
  -1.288  0.7108E-23  0.2000E+02
  -1.278  0.1951E-22  0.2000E+02
  -1.268  0.5299E-22  0.2000E+02
  -1.258  0.1424E-21  0.2000E+02
  -1.248  0.3784E-21  0.2000E+02
  -1.238  0.9951E-21  0.2000E+02
  -1.228  0.2589E-20  0.2000E+02
  -1.218  0.6664E-20  0.2000E+02
  -1.208  0.1697E-19  0.2000E+02
  -1.198  0.4276E-19  0.2000E+02
  -1.188  0.1066E-18  0.2000E+02
  -1.178  0.2629E-18  0.2000E+02
  -1.168  0.6416E-18  0.2000E+02
  -1.158  0.1549E-17  0.2000E+02
  -1.148  0.3701E-17  0.2000E+02
  -1.138  0.8746E-17  0.2000E+02
  -1.128  0.2045E-16  0.2000E+02
  -1.118  0.4733E-16  0.2000E+02
  -1.108  0.1083E-15  0.2000E+02
  -1.098  0.2454E-15  0.2000E+02
  -1.088  0.5501E-15  0.2000E+02
  -1.078  0.1220E-14  0.2000E+02
  -1.068  0.2677E-14  0.2000E+02
  -1.058  0.5813E-14  0.2000E+02
  -1.048  0.1249E-13  0.2000E+02
  -1.038  0.2655E-13  0.2000E+02
  -1.028  0.5586E-13  0.2000E+02
  -1.018  0.1163E-12  0.2000E+02
  -1.008  0.2395E-12  0.2000E+02
  -0.998  0.4883E-12  0.2000E+02
  -0.988  0.9850E-12  0.2000E+02
  -0.978  0.1966E-11  0.2000E+02
  -0.968  0.3885E-11  0.2000E+02
  -0.958  0.7595E-11  0.2000E+02
  -0.948  0.1469E-10  0.2000E+02
  -0.938  0.2814E-10  0.2000E+02
  -0.928  0.5332E-10  0.2000E+02
  -0.918  0.1000E-09  0.2000E+02
  -0.908  0.1857E-09  0.2000E+02
  -0.898  0.3411E-09  0.2000E+02
  -0.888  0.6204E-09  0.2000E+02
  -0.878  0.1117E-08  0.2000E+02
  -0.868  0.1990E-08  0.2000E+02
  -0.858  0.3509E-08  0.2000E+02
  -0.848  0.6126E-08  0.2000E+02
  -0.838  0.1059E-07  0.2000E+02
  -0.828  0.1811E-07  0.2000E+02
  -0.818  0.3068E-07  0.2000E+02
  -0.808  0.5144E-07  0.2000E+02
  -0.798  0.8540E-07  0.2000E+02
  -0.788  0.1404E-06  0.2000E+02
  -0.778  0.2284E-06  0.2000E+02
  -0.768  0.3681E-06  0.2000E+02
  -0.758  0.5872E-06  0.2000E+02
  -0.748  0.9278E-06  0.2000E+02
  -0.738  0.1452E-05  0.2000E+02
  -0.728  0.2249E-05  0.2000E+02
  -0.718  0.3451E-05  0.2000E+02
  -0.708  0.5244E-05  0.2000E+02
  -0.698  0.7893E-05  0.2000E+02
  -0.688  0.1177E-04  0.2000E+02
  -0.678  0.1737E-04  0.2000E+02
  -0.668  0.2541E-04  0.2000E+02
  -0.658  0.3682E-04  0.2000E+02
  -0.648  0.5286E-04  0.2000E+02
  -0.638  0.7517E-04  0.2000E+02
  -0.628  0.1059E-03  0.2000E+02
  -0.618  0.1478E-03  0.2000E+02
  -0.608  0.2045E-03  0.2000E+02
  -0.598  0.2803E-03  0.2000E+02
  -0.588  0.3807E-03  0.2000E+02
  -0.578  0.5124E-03  0.2000E+02
  -0.568  0.6835E-03  0.2000E+02
  -0.558  0.9036E-03  0.2000E+02
  -0.548  0.1184E-02  0.2000E+02
  -0.538  0.1538E-02  0.2000E+02
  -0.528  0.1980E-02  0.2000E+02
  -0.518  0.2528E-02  0.2000E+02
  -0.508  0.3199E-02  0.2000E+02
  -0.498  0.4014E-02  0.2000E+02
  -0.488  0.4994E-02  0.2000E+02
  -0.478  0.6161E-02  0.2000E+02
  -0.468  0.7539E-02  0.2000E+02
  -0.458  0.9149E-02  0.2000E+02
  -0.448  0.1101E-01  0.2000E+02
  -0.438  0.1315E-01  0.2000E+02
  -0.428  0.1558E-01  0.2000E+02
  -0.418  0.1832E-01  0.2000E+02
  -0.408  0.2138E-01  0.2000E+02
  -0.398  0.2476E-01  0.2000E+02
  -0.388  0.2847E-01  0.2000E+02
  -0.378  0.3250E-01  0.2000E+02
  -0.368  0.3685E-01  0.2000E+02
  -0.358  0.4150E-01  0.2000E+02
  -0.348  0.4642E-01  0.2000E+02
  -0.338  0.5160E-01  0.2000E+02
  -0.328  0.5701E-01  0.2000E+02
  -0.318  0.6260E-01  0.2001E+02
  -0.308  0.6835E-01  0.2001E+02
  -0.298  0.7421E-01  0.2001E+02
  -0.288  0.8014E-01  0.2001E+02
  -0.278  0.8610E-01  0.2001E+02
  -0.268  0.9203E-01  0.2001E+02
  -0.258  0.9791E-01  0.2001E+02
  -0.248  0.1037E+00  0.2001E+02
  -0.238  0.1093E+00  0.2001E+02
  -0.228  0.1148E+00  0.2001E+02
  -0.218  0.1200E+00  0.2001E+02
  -0.208  0.1251E+00  0.2002E+02
  -0.198  0.1299E+00  0.2002E+02
  -0.188  0.1344E+00  0.2002E+02
  -0.178  0.1387E+00  0.2002E+02
  -0.168  0.1428E+00  0.2002E+02
  -0.158  0.1468E+00  0.2002E+02
  -0.148  0.1505E+00  0.2002E+02
  -0.138  0.1542E+00  0.2003E+02
  -0.128  0.1578E+00  0.2003E+02
  -0.118  0.1614E+00  0.2003E+02
  -0.108  0.1651E+00  0.2003E+02
  -0.098  0.1689E+00  0.2003E+02
  -0.088  0.1729E+00  0.2003E+02
  -0.078  0.1771E+00  0.2004E+02
  -0.068  0.1814E+00  0.2004E+02
  -0.058  0.1860E+00  0.2004E+02
  -0.048  0.1909E+00  0.2004E+02
  -0.038  0.1959E+00  0.2004E+02
  -0.028  0.2010E+00  0.2005E+02
  -0.018  0.2062E+00  0.2005E+02
  -0.008  0.2114E+00  0.2005E+02
   0.002  0.2165E+00  0.2005E+02
   0.012  0.2214E+00  0.2005E+02
   0.022  0.2261E+00  0.2006E+02
   0.032  0.2304E+00  0.2006E+02
   0.042  0.2342E+00  0.2006E+02
   0.052  0.2375E+00  0.2006E+02
   0.062  0.2403E+00  0.2007E+02
   0.072  0.2425E+00  0.2007E+02
   0.082  0.2441E+00  0.2007E+02
   0.092  0.2451E+00  0.2007E+02
   0.102  0.2456E+00  0.2008E+02
   0.112  0.2456E+00  0.2008E+02
   0.122  0.2452E+00  0.2008E+02
   0.132  0.2445E+00  0.2008E+02
   0.142  0.2436E+00  0.2009E+02
   0.152  0.2426E+00  0.2009E+02
   0.162  0.2417E+00  0.2009E+02
   0.172  0.2410E+00  0.2009E+02
   0.182  0.2406E+00  0.2009E+02
   0.192  0.2406E+00  0.2010E+02
   0.202  0.2412E+00  0.2010E+02
   0.212  0.2424E+00  0.2010E+02
   0.222  0.2443E+00  0.2010E+02
   0.232  0.2470E+00  0.2011E+02
   0.242  0.2504E+00  0.2011E+02
   0.252  0.2546E+00  0.2011E+02
   0.262  0.2594E+00  0.2011E+02
   0.272  0.2649E+00  0.2012E+02
   0.282  0.2709E+00  0.2012E+02
   0.292  0.2773E+00  0.2012E+02
   0.302  0.2840E+00  0.2013E+02
   0.312  0.2908E+00  0.2013E+02
   0.322  0.2976E+00  0.2013E+02
   0.332  0.3042E+00  0.2013E+02
   0.342  0.3104E+00  0.2014E+02
   0.352  0.3161E+00  0.2014E+02
   0.362  0.3213E+00  0.2014E+02
   0.372  0.3257E+00  0.2015E+02
   0.382  0.3293E+00  0.2015E+02
   0.392  0.3321E+00  0.2015E+02
   0.402  0.3341E+00  0.2016E+02
   0.412  0.3353E+00  0.2016E+02
   0.422  0.3358E+00  0.2016E+02
   0.432  0.3356E+00  0.2017E+02
   0.442  0.3348E+00  0.2017E+02
   0.452  0.3336E+00  0.2017E+02
   0.462  0.3321E+00  0.2018E+02
   0.472  0.3304E+00  0.2018E+02
   0.482  0.3286E+00  0.2018E+02
   0.492  0.3270E+00  0.2019E+02
   0.502  0.3255E+00  0.2019E+02
   0.512  0.3242E+00  0.2019E+02
   0.522  0.3234E+00  0.2020E+02
   0.532  0.3229E+00  0.2020E+02
   0.542  0.3229E+00  0.2020E+02
   0.552  0.3234E+00  0.2021E+02
   0.562  0.3243E+00  0.2021E+02
   0.572  0.3258E+00  0.2021E+02
   0.582  0.3276E+00  0.2022E+02
   0.592  0.3299E+00  0.2022E+02
   0.602  0.3327E+00  0.2022E+02
   0.612  0.3357E+00  0.2023E+02
   0.622  0.3391E+00  0.2023E+02
   0.632  0.3428E+00  0.2023E+02
   0.642  0.3466E+00  0.2024E+02
   0.652  0.3506E+00  0.2024E+02
   0.662  0.3547E+00  0.2024E+02
   0.672  0.3588E+00  0.2025E+02
   0.682  0.3628E+00  0.2025E+02
   0.692  0.3667E+00  0.2025E+02
   0.702  0.3704E+00  0.2026E+02
   0.712  0.3738E+00  0.2026E+02
   0.722  0.3769E+00  0.2027E+02
   0.732  0.3797E+00  0.2027E+02
   0.742  0.3820E+00  0.2027E+02
   0.752  0.3840E+00  0.2028E+02
   0.762  0.3857E+00  0.2028E+02
   0.772  0.3869E+00  0.2028E+02
   0.782  0.3879E+00  0.2029E+02
   0.792  0.3886E+00  0.2029E+02
   0.802  0.3891E+00  0.2030E+02
   0.812  0.3895E+00  0.2030E+02
   0.822  0.3897E+00  0.2030E+02
   0.832  0.3898E+00  0.2031E+02
   0.842  0.3900E+00  0.2031E+02
   0.852  0.3900E+00  0.2032E+02
   0.862  0.3901E+00  0.2032E+02
   0.872  0.3902E+00  0.2032E+02
   0.882  0.3902E+00  0.2033E+02
   0.892  0.3902E+00  0.2033E+02
   0.902  0.3901E+00  0.2034E+02
   0.912  0.3899E+00  0.2034E+02
   0.922  0.3897E+00  0.2034E+02
   0.932  0.3895E+00  0.2035E+02
   0.942  0.3894E+00  0.2035E+02
   0.952  0.3893E+00  0.2036E+02
   0.962  0.3894E+00  0.2036E+02
   0.972  0.3898E+00  0.2036E+02
   0.982  0.3906E+00  0.2037E+02
   0.992  0.3919E+00  0.2037E+02
   1.002  0.3939E+00  0.2037E+02
   1.012  0.3965E+00  0.2038E+02
   1.022  0.3999E+00  0.2038E+02
   1.032  0.4042E+00  0.2039E+02
   1.042  0.4092E+00  0.2039E+02
   1.052  0.4151E+00  0.2039E+02
   1.062  0.4216E+00  0.2040E+02
   1.072  0.4288E+00  0.2040E+02
   1.082  0.4364E+00  0.2041E+02
   1.092  0.4444E+00  0.2041E+02
   1.102  0.4525E+00  0.2042E+02
   1.112  0.4605E+00  0.2042E+02
   1.122  0.4682E+00  0.2043E+02
   1.132  0.4755E+00  0.2043E+02
   1.142  0.4822E+00  0.2044E+02
   1.152  0.4882E+00  0.2044E+02
   1.162  0.4932E+00  0.2045E+02
   1.172  0.4974E+00  0.2045E+02
   1.182  0.5005E+00  0.2046E+02
   1.192  0.5027E+00  0.2046E+02
   1.202  0.5038E+00  0.2047E+02
   1.212  0.5040E+00  0.2047E+02
   1.222  0.5033E+00  0.2048E+02
   1.232  0.5017E+00  0.2048E+02
   1.242  0.4994E+00  0.2049E+02
   1.252  0.4964E+00  0.2049E+02
   1.262  0.4928E+00  0.2050E+02
   1.272  0.4887E+00  0.2050E+02
   1.282  0.4842E+00  0.2051E+02
   1.292  0.4793E+00  0.2051E+02
   1.302  0.4742E+00  0.2051E+02
   1.312  0.4689E+00  0.2052E+02
   1.322  0.4635E+00  0.2052E+02
   1.332  0.4581E+00  0.2053E+02
   1.342  0.4526E+00  0.2053E+02
   1.352  0.4473E+00  0.2054E+02
   1.362  0.4421E+00  0.2054E+02
   1.372  0.4372E+00  0.2055E+02
   1.382  0.4325E+00  0.2055E+02
   1.392  0.4283E+00  0.2055E+02
   1.402  0.4244E+00  0.2056E+02
   1.412  0.4211E+00  0.2056E+02
   1.422  0.4184E+00  0.2057E+02
   1.432  0.4163E+00  0.2057E+02
   1.442  0.4149E+00  0.2058E+02
   1.452  0.4142E+00  0.2058E+02
   1.462  0.4144E+00  0.2058E+02
   1.472  0.4153E+00  0.2059E+02
   1.482  0.4172E+00  0.2059E+02
   1.492  0.4199E+00  0.2060E+02
   1.502  0.4235E+00  0.2060E+02
   1.512  0.4281E+00  0.2061E+02
   1.522  0.4336E+00  0.2061E+02
   1.532  0.4400E+00  0.2061E+02
   1.542  0.4474E+00  0.2062E+02
   1.552  0.4556E+00  0.2062E+02
   1.562  0.4647E+00  0.2063E+02
   1.572  0.4745E+00  0.2063E+02
   1.582  0.4849E+00  0.2064E+02
   1.592  0.4959E+00  0.2064E+02
   1.602  0.5072E+00  0.2065E+02
   1.612  0.5188E+00  0.2065E+02
   1.622  0.5305E+00  0.2066E+02
   1.632  0.5421E+00  0.2066E+02
   1.642  0.5534E+00  0.2067E+02
   1.652  0.5642E+00  0.2067E+02
   1.662  0.5744E+00  0.2068E+02
   1.672  0.5838E+00  0.2069E+02
   1.682  0.5923E+00  0.2069E+02
   1.692  0.5997E+00  0.2070E+02
   1.702  0.6060E+00  0.2070E+02
   1.712  0.6111E+00  0.2071E+02
   1.722  0.6150E+00  0.2072E+02
   1.732  0.6176E+00  0.2072E+02
   1.742  0.6188E+00  0.2073E+02
   1.752  0.6189E+00  0.2073E+02
   1.762  0.6178E+00  0.2074E+02
   1.772  0.6155E+00  0.2075E+02
   1.782  0.6122E+00  0.2075E+02
   1.792  0.6081E+00  0.2076E+02
   1.802  0.6032E+00  0.2077E+02
   1.812  0.5977E+00  0.2077E+02
   1.822  0.5918E+00  0.2078E+02
   1.832  0.5857E+00  0.2078E+02
   1.842  0.5795E+00  0.2079E+02
   1.852  0.5735E+00  0.2079E+02
   1.862  0.5678E+00  0.2080E+02
   1.872  0.5624E+00  0.2081E+02
   1.882  0.5576E+00  0.2081E+02
   1.892  0.5534E+00  0.2082E+02
   1.902  0.5499E+00  0.2082E+02
   1.912  0.5469E+00  0.2083E+02
   1.922  0.5446E+00  0.2083E+02
   1.932  0.5427E+00  0.2084E+02
   1.942  0.5412E+00  0.2084E+02
   1.952  0.5399E+00  0.2085E+02
   1.962  0.5387E+00  0.2086E+02
   1.972  0.5374E+00  0.2086E+02
   1.982  0.5359E+00  0.2087E+02
   1.992  0.5341E+00  0.2087E+02
   2.002  0.5320E+00  0.2088E+02
   2.012  0.5295E+00  0.2088E+02
   2.022  0.5268E+00  0.2089E+02
   2.032  0.5238E+00  0.2089E+02
   2.042  0.5207E+00  0.2090E+02
   2.052  0.5178E+00  0.2090E+02
   2.062  0.5152E+00  0.2091E+02
   2.072  0.5131E+00  0.2091E+02
   2.082  0.5118E+00  0.2092E+02
   2.092  0.5116E+00  0.2092E+02
   2.102  0.5124E+00  0.2093E+02
   2.112  0.5146E+00  0.2093E+02
   2.122  0.5182E+00  0.2094E+02
   2.132  0.5232E+00  0.2094E+02
   2.142  0.5295E+00  0.2095E+02
   2.152  0.5371E+00  0.2095E+02
   2.162  0.5457E+00  0.2096E+02
   2.172  0.5553E+00  0.2097E+02
   2.182  0.5655E+00  0.2097E+02
   2.192  0.5761E+00  0.2098E+02
   2.202  0.5868E+00  0.2098E+02
   2.212  0.5974E+00  0.2099E+02
   2.222  0.6076E+00  0.2099E+02
   2.232  0.6171E+00  0.2100E+02
   2.242  0.6258E+00  0.2101E+02
   2.252  0.6335E+00  0.2101E+02
   2.262  0.6402E+00  0.2102E+02
   2.272  0.6457E+00  0.2103E+02
   2.282  0.6500E+00  0.2103E+02
   2.292  0.6532E+00  0.2104E+02
   2.302  0.6554E+00  0.2105E+02
   2.312  0.6566E+00  0.2105E+02
   2.322  0.6570E+00  0.2106E+02
   2.332  0.6567E+00  0.2107E+02
   2.342  0.6560E+00  0.2107E+02
   2.352  0.6549E+00  0.2108E+02
   2.362  0.6536E+00  0.2109E+02
   2.372  0.6525E+00  0.2109E+02
   2.382  0.6516E+00  0.2110E+02
   2.392  0.6511E+00  0.2110E+02
   2.402  0.6511E+00  0.2111E+02
   2.412  0.6518E+00  0.2112E+02
   2.422  0.6533E+00  0.2112E+02
   2.432  0.6556E+00  0.2113E+02
   2.442  0.6587E+00  0.2114E+02
   2.452  0.6626E+00  0.2114E+02
   2.462  0.6673E+00  0.2115E+02
   2.472  0.6725E+00  0.2116E+02
   2.482  0.6782E+00  0.2116E+02
   2.492  0.6841E+00  0.2117E+02
   2.502  0.6900E+00  0.2118E+02
   2.512  0.6956E+00  0.2119E+02
   2.522  0.7008E+00  0.2119E+02
   2.532  0.7052E+00  0.2120E+02
   2.542  0.7088E+00  0.2121E+02
   2.552  0.7112E+00  0.2121E+02
   2.562  0.7124E+00  0.2122E+02
   2.572  0.7122E+00  0.2123E+02
   2.582  0.7107E+00  0.2123E+02
   2.592  0.7080E+00  0.2124E+02
   2.602  0.7040E+00  0.2125E+02
   2.612  0.6991E+00  0.2126E+02
   2.622  0.6932E+00  0.2126E+02
   2.632  0.6868E+00  0.2127E+02
   2.642  0.6799E+00  0.2128E+02
   2.652  0.6730E+00  0.2128E+02
   2.662  0.6661E+00  0.2129E+02
   2.672  0.6596E+00  0.2130E+02
   2.682  0.6536E+00  0.2130E+02
   2.692  0.6483E+00  0.2131E+02
   2.702  0.6439E+00  0.2132E+02
   2.712  0.6403E+00  0.2132E+02
   2.722  0.6377E+00  0.2133E+02
   2.732  0.6360E+00  0.2134E+02
   2.742  0.6352E+00  0.2134E+02
   2.752  0.6354E+00  0.2135E+02
   2.762  0.6364E+00  0.2135E+02
   2.772  0.6383E+00  0.2136E+02
   2.782  0.6408E+00  0.2137E+02
   2.792  0.6441E+00  0.2137E+02
   2.802  0.6481E+00  0.2138E+02
   2.812  0.6527E+00  0.2139E+02
   2.822  0.6579E+00  0.2139E+02
   2.832  0.6637E+00  0.2140E+02
   2.842  0.6701E+00  0.2141E+02
   2.852  0.6772E+00  0.2141E+02
   2.862  0.6849E+00  0.2142E+02
   2.872  0.6933E+00  0.2143E+02
   2.882  0.7023E+00  0.2143E+02
   2.892  0.7119E+00  0.2144E+02
   2.902  0.7222E+00  0.2145E+02
   2.912  0.7330E+00  0.2146E+02
   2.922  0.7443E+00  0.2146E+02
   2.932  0.7561E+00  0.2147E+02
   2.942  0.7683E+00  0.2148E+02
   2.952  0.7806E+00  0.2149E+02
   2.962  0.7931E+00  0.2149E+02
   2.972  0.8056E+00  0.2150E+02
   2.982  0.8179E+00  0.2151E+02
   2.992  0.8298E+00  0.2152E+02
   3.002  0.8413E+00  0.2153E+02
   3.012  0.8521E+00  0.2154E+02
   3.022  0.8620E+00  0.2154E+02
   3.032  0.8711E+00  0.2155E+02
   3.042  0.8790E+00  0.2156E+02
   3.052  0.8857E+00  0.2157E+02
   3.062  0.8912E+00  0.2158E+02
   3.072  0.8952E+00  0.2159E+02
   3.082  0.8977E+00  0.2160E+02
   3.092  0.8987E+00  0.2161E+02
   3.102  0.8982E+00  0.2162E+02
   3.112  0.8961E+00  0.2162E+02
   3.122  0.8926E+00  0.2163E+02
   3.132  0.8877E+00  0.2164E+02
   3.142  0.8814E+00  0.2165E+02
   3.152  0.8740E+00  0.2166E+02
   3.162  0.8655E+00  0.2167E+02
   3.172  0.8563E+00  0.2168E+02
   3.182  0.8466E+00  0.2169E+02
   3.192  0.8365E+00  0.2169E+02
   3.202  0.8265E+00  0.2170E+02
   3.212  0.8167E+00  0.2171E+02
   3.222  0.8076E+00  0.2172E+02
   3.232  0.7994E+00  0.2173E+02
   3.242  0.7923E+00  0.2173E+02
   3.252  0.7866E+00  0.2174E+02
   3.262  0.7825E+00  0.2175E+02
   3.272  0.7801E+00  0.2176E+02
   3.282  0.7795E+00  0.2177E+02
   3.292  0.7807E+00  0.2177E+02
   3.302  0.7837E+00  0.2178E+02
   3.312  0.7884E+00  0.2179E+02
   3.322  0.7945E+00  0.2180E+02
   3.332  0.8020E+00  0.2180E+02
   3.342  0.8105E+00  0.2181E+02
   3.352  0.8198E+00  0.2182E+02
   3.362  0.8298E+00  0.2183E+02
   3.372  0.8400E+00  0.2184E+02
   3.382  0.8503E+00  0.2185E+02
   3.392  0.8605E+00  0.2185E+02
   3.402  0.8704E+00  0.2186E+02
   3.412  0.8799E+00  0.2187E+02
   3.422  0.8889E+00  0.2188E+02
   3.432  0.8973E+00  0.2189E+02
   3.442  0.9052E+00  0.2190E+02
   3.452  0.9126E+00  0.2191E+02
   3.462  0.9194E+00  0.2192E+02
   3.472  0.9258E+00  0.2193E+02
   3.482  0.9317E+00  0.2194E+02
   3.492  0.9372E+00  0.2195E+02
   3.502  0.9424E+00  0.2196E+02
   3.512  0.9471E+00  0.2196E+02
   3.522  0.9515E+00  0.2197E+02
   3.532  0.9555E+00  0.2198E+02
   3.542  0.9591E+00  0.2199E+02
   3.552  0.9621E+00  0.2200E+02
   3.562  0.9646E+00  0.2201E+02
   3.572  0.9665E+00  0.2202E+02
   3.582  0.9678E+00  0.2203E+02
   3.592  0.9684E+00  0.2204E+02
   3.602  0.9684E+00  0.2205E+02
   3.612  0.9678E+00  0.2206E+02
   3.622  0.9667E+00  0.2207E+02
   3.632  0.9652E+00  0.2208E+02
   3.642  0.9634E+00  0.2209E+02
   3.652  0.9616E+00  0.2210E+02
   3.662  0.9599E+00  0.2211E+02
   3.672  0.9586E+00  0.2212E+02
   3.682  0.9579E+00  0.2213E+02
   3.692  0.9579E+00  0.2214E+02
   3.702  0.9588E+00  0.2215E+02
   3.712  0.9608E+00  0.2216E+02
   3.722  0.9640E+00  0.2217E+02
   3.732  0.9683E+00  0.2218E+02
   3.742  0.9739E+00  0.2219E+02
   3.752  0.9807E+00  0.2220E+02
   3.762  0.9885E+00  0.2221E+02
   3.772  0.9972E+00  0.2222E+02
   3.782  0.1007E+01  0.2223E+02
   3.792  0.1017E+01  0.2224E+02
   3.802  0.1027E+01  0.2225E+02
   3.812  0.1037E+01  0.2226E+02
   3.822  0.1048E+01  0.2227E+02
   3.832  0.1058E+01  0.2228E+02
   3.842  0.1067E+01  0.2229E+02
   3.852  0.1076E+01  0.2230E+02
   3.862  0.1085E+01  0.2231E+02
   3.872  0.1092E+01  0.2232E+02
   3.882  0.1099E+01  0.2233E+02
   3.892  0.1105E+01  0.2234E+02
   3.902  0.1110E+01  0.2235E+02
   3.912  0.1114E+01  0.2237E+02
   3.922  0.1116E+01  0.2238E+02
   3.932  0.1118E+01  0.2239E+02
   3.942  0.1119E+01  0.2240E+02
   3.952  0.1118E+01  0.2241E+02
   3.962  0.1116E+01  0.2242E+02
   3.972  0.1112E+01  0.2243E+02
   3.982  0.1107E+01  0.2244E+02
   3.992  0.1100E+01  0.2245E+02
   4.002  0.1092E+01  0.2247E+02
   4.012  0.1081E+01  0.2248E+02
   4.022  0.1069E+01  0.2249E+02
   4.032  0.1055E+01  0.2250E+02
   4.042  0.1039E+01  0.2251E+02
   4.052  0.1021E+01  0.2252E+02
   4.062  0.1001E+01  0.2253E+02
   4.072  0.9798E+00  0.2254E+02
   4.082  0.9571E+00  0.2255E+02
   4.092  0.9332E+00  0.2256E+02
   4.102  0.9082E+00  0.2257E+02
   4.112  0.8825E+00  0.2257E+02
   4.122  0.8563E+00  0.2258E+02
   4.132  0.8298E+00  0.2259E+02
   4.142  0.8033E+00  0.2260E+02
   4.152  0.7772E+00  0.2261E+02
   4.162  0.7515E+00  0.2261E+02
   4.172  0.7266E+00  0.2262E+02
   4.182  0.7026E+00  0.2263E+02
   4.192  0.6799E+00  0.2264E+02
   4.202  0.6584E+00  0.2264E+02
   4.212  0.6384E+00  0.2265E+02
   4.222  0.6201E+00  0.2265E+02
   4.232  0.6035E+00  0.2266E+02
   4.242  0.5889E+00  0.2267E+02
   4.252  0.5762E+00  0.2267E+02
   4.262  0.5656E+00  0.2268E+02
   4.272  0.5572E+00  0.2268E+02
   4.282  0.5511E+00  0.2269E+02
   4.292  0.5474E+00  0.2269E+02
   4.302  0.5460E+00  0.2270E+02
   4.312  0.5471E+00  0.2271E+02
   4.322  0.5505E+00  0.2271E+02
   4.332  0.5562E+00  0.2272E+02
   4.342  0.5641E+00  0.2272E+02
   4.352  0.5741E+00  0.2273E+02
   4.362  0.5858E+00  0.2273E+02
   4.372  0.5990E+00  0.2274E+02
   4.382  0.6134E+00  0.2275E+02
   4.392  0.6286E+00  0.2275E+02
   4.402  0.6441E+00  0.2276E+02
   4.412  0.6596E+00  0.2277E+02
   4.422  0.6745E+00  0.2277E+02
   4.432  0.6884E+00  0.2278E+02
   4.442  0.7009E+00  0.2279E+02
   4.452  0.7116E+00  0.2279E+02
   4.462  0.7203E+00  0.2280E+02
   4.472  0.7266E+00  0.2281E+02
   4.482  0.7305E+00  0.2281E+02
   4.492  0.7318E+00  0.2282E+02
   4.502  0.7306E+00  0.2283E+02
   4.512  0.7270E+00  0.2284E+02
   4.522  0.7211E+00  0.2284E+02
   4.532  0.7131E+00  0.2285E+02
   4.542  0.7034E+00  0.2286E+02
   4.552  0.6922E+00  0.2287E+02
   4.562  0.6798E+00  0.2287E+02
   4.572  0.6667E+00  0.2288E+02
   4.582  0.6530E+00  0.2289E+02
   4.592  0.6390E+00  0.2289E+02
   4.602  0.6250E+00  0.2290E+02
   4.612  0.6112E+00  0.2290E+02
   4.622  0.5977E+00  0.2291E+02
   4.632  0.5845E+00  0.2292E+02
   4.642  0.5717E+00  0.2292E+02
   4.652  0.5593E+00  0.2293E+02
   4.662  0.5471E+00  0.2293E+02
   4.672  0.5353E+00  0.2294E+02
   4.682  0.5235E+00  0.2294E+02
   4.692  0.5118E+00  0.2295E+02
   4.702  0.4999E+00  0.2295E+02
   4.712  0.4880E+00  0.2296E+02
   4.722  0.4758E+00  0.2296E+02
   4.732  0.4633E+00  0.2297E+02
   4.742  0.4507E+00  0.2297E+02
   4.752  0.4379E+00  0.2298E+02
   4.762  0.4250E+00  0.2298E+02
   4.772  0.4123E+00  0.2298E+02
   4.782  0.3999E+00  0.2299E+02
   4.792  0.3881E+00  0.2299E+02
   4.802  0.3770E+00  0.2300E+02
   4.812  0.3671E+00  0.2300E+02
   4.822  0.3585E+00  0.2300E+02
   4.832  0.3516E+00  0.2301E+02
   4.842  0.3465E+00  0.2301E+02
   4.852  0.3434E+00  0.2301E+02
   4.862  0.3426E+00  0.2302E+02
   4.872  0.3440E+00  0.2302E+02
   4.882  0.3477E+00  0.2302E+02
   4.892  0.3537E+00  0.2303E+02
   4.902  0.3618E+00  0.2303E+02
   4.912  0.3718E+00  0.2304E+02
   4.922  0.3835E+00  0.2304E+02
   4.932  0.3964E+00  0.2304E+02
   4.942  0.4103E+00  0.2305E+02
   4.952  0.4247E+00  0.2305E+02
   4.962  0.4392E+00  0.2306E+02
   4.972  0.4534E+00  0.2306E+02
   4.982  0.4670E+00  0.2306E+02
   4.992  0.4796E+00  0.2307E+02
   5.002  0.4909E+00  0.2307E+02
   5.012  0.5007E+00  0.2308E+02
   5.022  0.5090E+00  0.2308E+02
   5.032  0.5156E+00  0.2309E+02
   5.042  0.5207E+00  0.2310E+02
   5.052  0.5245E+00  0.2310E+02
   5.062  0.5270E+00  0.2311E+02
   5.072  0.5286E+00  0.2311E+02
   5.082  0.5297E+00  0.2312E+02
   5.092  0.5305E+00  0.2312E+02
   5.102  0.5314E+00  0.2313E+02
   5.112  0.5328E+00  0.2313E+02
   5.122  0.5350E+00  0.2314E+02
   5.132  0.5382E+00  0.2314E+02
   5.142  0.5427E+00  0.2315E+02
   5.152  0.5486E+00  0.2315E+02
   5.162  0.5560E+00  0.2316E+02
   5.172  0.5649E+00  0.2316E+02
   5.182  0.5752E+00  0.2317E+02
   5.192  0.5869E+00  0.2318E+02
   5.202  0.5997E+00  0.2318E+02
   5.212  0.6134E+00  0.2319E+02
   5.222  0.6278E+00  0.2319E+02
   5.232  0.6427E+00  0.2320E+02
   5.242  0.6577E+00  0.2321E+02
   5.252  0.6728E+00  0.2321E+02
   5.262  0.6875E+00  0.2322E+02
   5.272  0.7017E+00  0.2323E+02
   5.282  0.7154E+00  0.2324E+02
   5.292  0.7282E+00  0.2324E+02
   5.302  0.7402E+00  0.2325E+02
   5.312  0.7513E+00  0.2326E+02
   5.322  0.7615E+00  0.2327E+02
   5.332  0.7707E+00  0.2327E+02
   5.342  0.7790E+00  0.2328E+02
   5.352  0.7863E+00  0.2329E+02
   5.362  0.7928E+00  0.2330E+02
   5.372  0.7982E+00  0.2330E+02
   5.382  0.8027E+00  0.2331E+02
   5.392  0.8061E+00  0.2332E+02
   5.402  0.8084E+00  0.2333E+02
   5.412  0.8094E+00  0.2334E+02
   5.422  0.8090E+00  0.2335E+02
   5.432  0.8071E+00  0.2335E+02
   5.442  0.8035E+00  0.2336E+02
   5.452  0.7980E+00  0.2337E+02
   5.462  0.7906E+00  0.2338E+02
   5.472  0.7811E+00  0.2338E+02
   5.482  0.7697E+00  0.2339E+02
   5.492  0.7562E+00  0.2340E+02
   5.502  0.7407E+00  0.2341E+02
   5.512  0.7235E+00  0.2341E+02
   5.522  0.7048E+00  0.2342E+02
   5.532  0.6847E+00  0.2343E+02
   5.542  0.6636E+00  0.2344E+02
   5.552  0.6418E+00  0.2344E+02
   5.562  0.6197E+00  0.2345E+02
   5.572  0.5976E+00  0.2345E+02
   5.582  0.5757E+00  0.2346E+02
   5.592  0.5545E+00  0.2347E+02
   5.602  0.5341E+00  0.2347E+02
   5.612  0.5146E+00  0.2348E+02
   5.622  0.4964E+00  0.2348E+02
   5.632  0.4793E+00  0.2349E+02
   5.642  0.4635E+00  0.2349E+02
   5.652  0.4489E+00  0.2349E+02
   5.662  0.4353E+00  0.2350E+02
   5.672  0.4228E+00  0.2350E+02
   5.682  0.4110E+00  0.2351E+02
   5.692  0.4000E+00  0.2351E+02
   5.702  0.3895E+00  0.2352E+02
   5.712  0.3794E+00  0.2352E+02
   5.722  0.3696E+00  0.2352E+02
   5.732  0.3600E+00  0.2353E+02
   5.742  0.3506E+00  0.2353E+02
   5.752  0.3414E+00  0.2353E+02
   5.762  0.3324E+00  0.2354E+02
   5.772  0.3238E+00  0.2354E+02
   5.782  0.3157E+00  0.2354E+02
   5.792  0.3083E+00  0.2355E+02
   5.802  0.3017E+00  0.2355E+02
   5.812  0.2963E+00  0.2355E+02
   5.822  0.2921E+00  0.2355E+02
   5.832  0.2895E+00  0.2356E+02
   5.842  0.2886E+00  0.2356E+02
   5.852  0.2896E+00  0.2356E+02
   5.862  0.2927E+00  0.2357E+02
   5.872  0.2979E+00  0.2357E+02
   5.882  0.3054E+00  0.2357E+02
   5.892  0.3150E+00  0.2358E+02
   5.902  0.3269E+00  0.2358E+02
   5.912  0.3407E+00  0.2358E+02
   5.922  0.3564E+00  0.2359E+02
   5.932  0.3737E+00  0.2359E+02
   5.942  0.3923E+00  0.2359E+02
   5.952  0.4119E+00  0.2360E+02
   5.962  0.4322E+00  0.2360E+02
   5.972  0.4527E+00  0.2361E+02
   5.982  0.4731E+00  0.2361E+02
   5.992  0.4930E+00  0.2362E+02
   6.002  0.5120E+00  0.2362E+02
   6.012  0.5297E+00  0.2363E+02
   6.022  0.5458E+00  0.2363E+02
   6.032  0.5601E+00  0.2364E+02
   6.042  0.5722E+00  0.2364E+02
   6.052  0.5821E+00  0.2365E+02
   6.062  0.5895E+00  0.2366E+02
   6.072  0.5945E+00  0.2366E+02
   6.082  0.5969E+00  0.2367E+02
   6.092  0.5969E+00  0.2367E+02
   6.102  0.5945E+00  0.2368E+02
   6.112  0.5900E+00  0.2368E+02
   6.122  0.5834E+00  0.2369E+02
   6.132  0.5751E+00  0.2370E+02
   6.142  0.5653E+00  0.2370E+02
   6.152  0.5542E+00  0.2371E+02
   6.162  0.5423E+00  0.2371E+02
   6.172  0.5298E+00  0.2372E+02
   6.182  0.5169E+00  0.2372E+02
   6.192  0.5042E+00  0.2373E+02
   6.202  0.4917E+00  0.2373E+02
   6.212  0.4798E+00  0.2374E+02
   6.222  0.4686E+00  0.2374E+02
   6.232  0.4585E+00  0.2375E+02
   6.242  0.4494E+00  0.2375E+02
   6.252  0.4416E+00  0.2376E+02
   6.262  0.4349E+00  0.2376E+02
   6.272  0.4294E+00  0.2377E+02
   6.282  0.4250E+00  0.2377E+02
   6.292  0.4215E+00  0.2377E+02
   6.302  0.4188E+00  0.2378E+02
   6.312  0.4166E+00  0.2378E+02
   6.322  0.4146E+00  0.2379E+02
   6.332  0.4127E+00  0.2379E+02
   6.342  0.4105E+00  0.2379E+02
   6.352  0.4079E+00  0.2380E+02
   6.362  0.4046E+00  0.2380E+02
   6.372  0.4004E+00  0.2381E+02
   6.382  0.3953E+00  0.2381E+02
   6.392  0.3893E+00  0.2381E+02
   6.402  0.3822E+00  0.2382E+02
   6.412  0.3744E+00  0.2382E+02
   6.422  0.3658E+00  0.2383E+02
   6.432  0.3566E+00  0.2383E+02
   6.442  0.3472E+00  0.2383E+02
   6.452  0.3378E+00  0.2384E+02
   6.462  0.3287E+00  0.2384E+02
   6.472  0.3200E+00  0.2384E+02
   6.482  0.3122E+00  0.2385E+02
   6.492  0.3055E+00  0.2385E+02
   6.502  0.3000E+00  0.2385E+02
   6.512  0.2959E+00  0.2385E+02
   6.522  0.2935E+00  0.2386E+02
   6.532  0.2927E+00  0.2386E+02
   6.542  0.2937E+00  0.2386E+02
   6.552  0.2964E+00  0.2387E+02
   6.562  0.3008E+00  0.2387E+02
   6.572  0.3068E+00  0.2387E+02
   6.582  0.3144E+00  0.2388E+02
   6.592  0.3234E+00  0.2388E+02
   6.602  0.3338E+00  0.2388E+02
   6.612  0.3453E+00  0.2389E+02
   6.622  0.3577E+00  0.2389E+02
   6.632  0.3709E+00  0.2389E+02
   6.642  0.3848E+00  0.2390E+02
   6.652  0.3990E+00  0.2390E+02
   6.662  0.4135E+00  0.2390E+02
   6.672  0.4279E+00  0.2391E+02
   6.682  0.4422E+00  0.2391E+02
   6.692  0.4560E+00  0.2392E+02
   6.702  0.4694E+00  0.2392E+02
   6.712  0.4821E+00  0.2393E+02
   6.722  0.4941E+00  0.2393E+02
   6.732  0.5052E+00  0.2394E+02
   6.742  0.5155E+00  0.2394E+02
   6.752  0.5250E+00  0.2395E+02
   6.762  0.5337E+00  0.2395E+02
   6.772  0.5418E+00  0.2396E+02
   6.782  0.5495E+00  0.2396E+02
   6.792  0.5569E+00  0.2397E+02
   6.802  0.5643E+00  0.2398E+02
   6.812  0.5720E+00  0.2398E+02
   6.822  0.5802E+00  0.2399E+02
   6.832  0.5891E+00  0.2399E+02
   6.842  0.5991E+00  0.2400E+02
   6.852  0.6102E+00  0.2401E+02
   6.862  0.6228E+00  0.2401E+02
   6.872  0.6368E+00  0.2402E+02
   6.882  0.6523E+00  0.2402E+02
   6.892  0.6693E+00  0.2403E+02
   6.902  0.6876E+00  0.2404E+02
   6.912  0.7069E+00  0.2404E+02
   6.922  0.7271E+00  0.2405E+02
   6.932  0.7477E+00  0.2406E+02
   6.942  0.7684E+00  0.2407E+02
   6.952  0.7885E+00  0.2408E+02
   6.962  0.8077E+00  0.2408E+02
   6.972  0.8254E+00  0.2409E+02
   6.982  0.8412E+00  0.2410E+02
   6.992  0.8546E+00  0.2411E+02
   7.002  0.8652E+00  0.2412E+02
   7.012  0.8727E+00  0.2413E+02
   7.022  0.8769E+00  0.2413E+02
   7.032  0.8777E+00  0.2414E+02
   7.042  0.8751E+00  0.2415E+02
   7.052  0.8691E+00  0.2416E+02
   7.062  0.8600E+00  0.2417E+02
   7.072  0.8481E+00  0.2418E+02
   7.082  0.8337E+00  0.2419E+02
   7.092  0.8172E+00  0.2419E+02
   7.102  0.7992E+00  0.2420E+02
   7.112  0.7802E+00  0.2421E+02
   7.122  0.7606E+00  0.2422E+02
   7.132  0.7412E+00  0.2423E+02
   7.142  0.7223E+00  0.2423E+02
   7.152  0.7046E+00  0.2424E+02
   7.162  0.6885E+00  0.2425E+02
   7.172  0.6744E+00  0.2425E+02
   7.182  0.6628E+00  0.2426E+02
   7.192  0.6539E+00  0.2427E+02
   7.202  0.6482E+00  0.2427E+02
   7.212  0.6457E+00  0.2428E+02
   7.222  0.6466E+00  0.2429E+02
   7.232  0.6511E+00  0.2429E+02
   7.242  0.6590E+00  0.2430E+02
   7.252  0.6703E+00  0.2431E+02
   7.262  0.6848E+00  0.2431E+02
   7.272  0.7022E+00  0.2432E+02
   7.282  0.7222E+00  0.2433E+02
   7.292  0.7443E+00  0.2433E+02
   7.302  0.7681E+00  0.2434E+02
   7.312  0.7929E+00  0.2435E+02
   7.322  0.8182E+00  0.2436E+02
   7.332  0.8434E+00  0.2437E+02
   7.342  0.8678E+00  0.2437E+02
   7.352  0.8910E+00  0.2438E+02
   7.362  0.9124E+00  0.2439E+02
   7.372  0.9315E+00  0.2440E+02
   7.382  0.9481E+00  0.2441E+02
   7.392  0.9618E+00  0.2442E+02
   7.402  0.9725E+00  0.2443E+02
   7.412  0.9803E+00  0.2444E+02
   7.422  0.9851E+00  0.2445E+02
   7.432  0.9872E+00  0.2446E+02
   7.442  0.9870E+00  0.2447E+02
   7.452  0.9846E+00  0.2448E+02
   7.462  0.9805E+00  0.2449E+02
   7.472  0.9751E+00  0.2450E+02
   7.482  0.9688E+00  0.2451E+02
   7.492  0.9620E+00  0.2452E+02
   7.502  0.9549E+00  0.2453E+02
   7.512  0.9479E+00  0.2454E+02
   7.522  0.9413E+00  0.2455E+02
   7.532  0.9351E+00  0.2456E+02
   7.542  0.9295E+00  0.2457E+02
   7.552  0.9246E+00  0.2458E+02
   7.562  0.9204E+00  0.2458E+02
   7.572  0.9169E+00  0.2459E+02
   7.582  0.9141E+00  0.2460E+02
   7.592  0.9120E+00  0.2461E+02
   7.602  0.9106E+00  0.2462E+02
   7.612  0.9099E+00  0.2463E+02
   7.622  0.9100E+00  0.2464E+02
   7.632  0.9108E+00  0.2465E+02
   7.642  0.9125E+00  0.2466E+02
   7.652  0.9151E+00  0.2467E+02
   7.662  0.9186E+00  0.2468E+02
   7.672  0.9230E+00  0.2469E+02
   7.682  0.9285E+00  0.2469E+02
   7.692  0.9349E+00  0.2470E+02
   7.702  0.9422E+00  0.2471E+02
   7.712  0.9504E+00  0.2472E+02
   7.722  0.9593E+00  0.2473E+02
   7.732  0.9688E+00  0.2474E+02
   7.742  0.9786E+00  0.2475E+02
   7.752  0.9885E+00  0.2476E+02
   7.762  0.9983E+00  0.2477E+02
   7.772  0.1008E+01  0.2478E+02
   7.782  0.1016E+01  0.2479E+02
   7.792  0.1024E+01  0.2480E+02
   7.802  0.1030E+01  0.2481E+02
   7.812  0.1034E+01  0.2482E+02
   7.822  0.1037E+01  0.2483E+02
   7.832  0.1037E+01  0.2484E+02
   7.842  0.1035E+01  0.2485E+02
   7.852  0.1031E+01  0.2486E+02
   7.862  0.1024E+01  0.2487E+02
   7.872  0.1014E+01  0.2488E+02
   7.882  0.1002E+01  0.2489E+02
   7.892  0.9876E+00  0.2490E+02
   7.902  0.9707E+00  0.2491E+02
   7.912  0.9517E+00  0.2492E+02
   7.922  0.9311E+00  0.2493E+02
   7.932  0.9091E+00  0.2494E+02
   7.942  0.8863E+00  0.2495E+02
   7.952  0.8632E+00  0.2496E+02
   7.962  0.8402E+00  0.2497E+02
   7.972  0.8180E+00  0.2498E+02
   7.982  0.7971E+00  0.2498E+02
   7.992  0.7780E+00  0.2499E+02
   8.002  0.7611E+00  0.2500E+02
   8.012  0.7470E+00  0.2501E+02
   8.022  0.7359E+00  0.2501E+02
   8.032  0.7280E+00  0.2502E+02
   8.042  0.7237E+00  0.2503E+02
   8.052  0.7229E+00  0.2504E+02
   8.062  0.7255E+00  0.2504E+02
   8.072  0.7316E+00  0.2505E+02
   8.082  0.7407E+00  0.2506E+02
   8.092  0.7527E+00  0.2507E+02
   8.102  0.7671E+00  0.2507E+02
   8.112  0.7835E+00  0.2508E+02
   8.122  0.8014E+00  0.2509E+02
   8.132  0.8203E+00  0.2510E+02
   8.142  0.8397E+00  0.2511E+02
   8.152  0.8591E+00  0.2511E+02
   8.162  0.8780E+00  0.2512E+02
   8.172  0.8960E+00  0.2513E+02
   8.182  0.9129E+00  0.2514E+02
   8.192  0.9283E+00  0.2515E+02
   8.202  0.9421E+00  0.2516E+02
   8.212  0.9541E+00  0.2517E+02
   8.222  0.9644E+00  0.2518E+02
   8.232  0.9730E+00  0.2519E+02
   8.242  0.9800E+00  0.2520E+02
   8.252  0.9857E+00  0.2521E+02
   8.262  0.9903E+00  0.2522E+02
   8.272  0.9939E+00  0.2523E+02
   8.282  0.9969E+00  0.2524E+02
   8.292  0.9995E+00  0.2525E+02
   8.302  0.1002E+01  0.2526E+02
   8.312  0.1004E+01  0.2527E+02
   8.322  0.1006E+01  0.2528E+02
   8.332  0.1009E+01  0.2529E+02
   8.342  0.1011E+01  0.2530E+02
   8.352  0.1014E+01  0.2531E+02
   8.362  0.1016E+01  0.2532E+02
   8.372  0.1018E+01  0.2533E+02
   8.382  0.1019E+01  0.2534E+02
   8.392  0.1019E+01  0.2535E+02
   8.402  0.1019E+01  0.2536E+02
   8.412  0.1017E+01  0.2537E+02
   8.422  0.1014E+01  0.2538E+02
   8.432  0.1010E+01  0.2539E+02
   8.442  0.1004E+01  0.2540E+02
   8.452  0.9960E+00  0.2541E+02
   8.462  0.9869E+00  0.2542E+02
   8.472  0.9764E+00  0.2543E+02
   8.482  0.9647E+00  0.2544E+02
   8.492  0.9520E+00  0.2545E+02
   8.502  0.9385E+00  0.2546E+02
   8.512  0.9246E+00  0.2547E+02
   8.522  0.9105E+00  0.2548E+02
   8.532  0.8966E+00  0.2549E+02
   8.542  0.8831E+00  0.2549E+02
   8.552  0.8705E+00  0.2550E+02
   8.562  0.8589E+00  0.2551E+02
   8.572  0.8487E+00  0.2552E+02
   8.582  0.8401E+00  0.2553E+02
   8.592  0.8334E+00  0.2554E+02
   8.602  0.8286E+00  0.2555E+02
   8.612  0.8260E+00  0.2555E+02
   8.622  0.8257E+00  0.2556E+02
   8.632  0.8277E+00  0.2557E+02
   8.642  0.8322E+00  0.2558E+02
   8.652  0.8390E+00  0.2559E+02
   8.662  0.8481E+00  0.2560E+02
   8.672  0.8595E+00  0.2560E+02
   8.682  0.8730E+00  0.2561E+02
   8.692  0.8885E+00  0.2562E+02
   8.702  0.9057E+00  0.2563E+02
   8.712  0.9243E+00  0.2564E+02
   8.722  0.9442E+00  0.2565E+02
   8.732  0.9649E+00  0.2566E+02
   8.742  0.9862E+00  0.2567E+02
   8.752  0.1008E+01  0.2568E+02
   8.762  0.1029E+01  0.2569E+02
   8.772  0.1050E+01  0.2570E+02
   8.782  0.1070E+01  0.2571E+02
   8.792  0.1089E+01  0.2572E+02
   8.802  0.1106E+01  0.2573E+02
   8.812  0.1122E+01  0.2574E+02
   8.822  0.1136E+01  0.2575E+02
   8.832  0.1149E+01  0.2577E+02
   8.842  0.1160E+01  0.2578E+02
   8.852  0.1169E+01  0.2579E+02
   8.862  0.1176E+01  0.2580E+02
   8.872  0.1182E+01  0.2581E+02
   8.882  0.1187E+01  0.2583E+02
   8.892  0.1191E+01  0.2584E+02
   8.902  0.1194E+01  0.2585E+02
   8.912  0.1197E+01  0.2586E+02
   8.922  0.1200E+01  0.2587E+02
   8.932  0.1203E+01  0.2588E+02
   8.942  0.1206E+01  0.2590E+02
   8.952  0.1209E+01  0.2591E+02
   8.962  0.1213E+01  0.2592E+02
   8.972  0.1218E+01  0.2593E+02
   8.982  0.1223E+01  0.2595E+02
   8.992  0.1229E+01  0.2596E+02
   9.002  0.1235E+01  0.2597E+02
   9.012  0.1241E+01  0.2598E+02
   9.022  0.1248E+01  0.2600E+02
   9.032  0.1254E+01  0.2601E+02
   9.042  0.1260E+01  0.2602E+02
   9.052  0.1265E+01  0.2603E+02
   9.062  0.1270E+01  0.2605E+02
   9.072  0.1274E+01  0.2606E+02
   9.082  0.1276E+01  0.2607E+02
   9.092  0.1277E+01  0.2608E+02
   9.102  0.1276E+01  0.2610E+02
   9.112  0.1274E+01  0.2611E+02
   9.122  0.1271E+01  0.2612E+02
   9.132  0.1265E+01  0.2613E+02
   9.142  0.1258E+01  0.2615E+02
   9.152  0.1250E+01  0.2616E+02
   9.162  0.1240E+01  0.2617E+02
   9.172  0.1229E+01  0.2618E+02
   9.182  0.1217E+01  0.2620E+02
   9.192  0.1204E+01  0.2621E+02
   9.202  0.1190E+01  0.2622E+02
   9.212  0.1177E+01  0.2623E+02
   9.222  0.1164E+01  0.2624E+02
   9.232  0.1151E+01  0.2626E+02
   9.242  0.1138E+01  0.2627E+02
   9.252  0.1127E+01  0.2628E+02
   9.262  0.1116E+01  0.2629E+02
   9.272  0.1107E+01  0.2630E+02
   9.282  0.1099E+01  0.2631E+02
   9.292  0.1092E+01  0.2632E+02
   9.302  0.1087E+01  0.2633E+02
   9.312  0.1083E+01  0.2634E+02
   9.322  0.1081E+01  0.2635E+02
   9.332  0.1080E+01  0.2637E+02
   9.342  0.1081E+01  0.2638E+02
   9.352  0.1083E+01  0.2639E+02
   9.362  0.1087E+01  0.2640E+02
   9.372  0.1092E+01  0.2641E+02
   9.382  0.1099E+01  0.2642E+02
   9.392  0.1108E+01  0.2643E+02
   9.402  0.1118E+01  0.2644E+02
   9.412  0.1131E+01  0.2645E+02
   9.422  0.1145E+01  0.2647E+02
   9.432  0.1162E+01  0.2648E+02
   9.442  0.1181E+01  0.2649E+02
   9.452  0.1202E+01  0.2650E+02
   9.462  0.1225E+01  0.2651E+02
   9.472  0.1250E+01  0.2653E+02
   9.482  0.1276E+01  0.2654E+02
   9.492  0.1304E+01  0.2655E+02
   9.502  0.1333E+01  0.2656E+02
   9.512  0.1362E+01  0.2658E+02
   9.522  0.1390E+01  0.2659E+02
   9.532  0.1418E+01  0.2661E+02
   9.542  0.1444E+01  0.2662E+02
   9.552  0.1468E+01  0.2664E+02
   9.562  0.1488E+01  0.2665E+02
   9.572  0.1506E+01  0.2667E+02
   9.582  0.1519E+01  0.2668E+02
   9.592  0.1527E+01  0.2670E+02
   9.602  0.1531E+01  0.2671E+02
   9.612  0.1530E+01  0.2673E+02
   9.622  0.1524E+01  0.2674E+02
   9.632  0.1513E+01  0.2676E+02
   9.642  0.1498E+01  0.2677E+02
   9.652  0.1478E+01  0.2679E+02
   9.662  0.1455E+01  0.2680E+02
   9.672  0.1428E+01  0.2682E+02
   9.682  0.1399E+01  0.2683E+02
   9.692  0.1368E+01  0.2684E+02
   9.702  0.1336E+01  0.2686E+02
   9.712  0.1304E+01  0.2687E+02
   9.722  0.1272E+01  0.2688E+02
   9.732  0.1241E+01  0.2689E+02
   9.742  0.1212E+01  0.2691E+02
   9.752  0.1184E+01  0.2692E+02
   9.762  0.1160E+01  0.2693E+02
   9.772  0.1138E+01  0.2694E+02
   9.782  0.1119E+01  0.2695E+02
   9.792  0.1103E+01  0.2696E+02
   9.802  0.1090E+01  0.2697E+02
   9.812  0.1080E+01  0.2699E+02
   9.822  0.1074E+01  0.2700E+02
   9.832  0.1070E+01  0.2701E+02
   9.842  0.1069E+01  0.2702E+02
   9.852  0.1070E+01  0.2703E+02
   9.862  0.1074E+01  0.2704E+02
   9.872  0.1079E+01  0.2705E+02
   9.882  0.1086E+01  0.2706E+02
   9.892  0.1095E+01  0.2707E+02
   9.902  0.1104E+01  0.2708E+02
   9.912  0.1114E+01  0.2709E+02
   9.922  0.1124E+01  0.2710E+02
   9.932  0.1135E+01  0.2712E+02
   9.942  0.1145E+01  0.2713E+02
   9.952  0.1155E+01  0.2714E+02
   9.962  0.1164E+01  0.2715E+02
   9.972  0.1172E+01  0.2716E+02
   9.982  0.1179E+01  0.2717E+02
   9.992  0.1184E+01  0.2719E+02
  10.002  0.1188E+01  0.2720E+02
  10.012  0.1191E+01  0.2721E+02
  10.022  0.1191E+01  0.2722E+02
  10.032  0.1190E+01  0.2723E+02
  10.042  0.1187E+01  0.2725E+02
  10.052  0.1182E+01  0.2726E+02
  10.062  0.1175E+01  0.2727E+02
  10.072  0.1166E+01  0.2728E+02
  10.082  0.1156E+01  0.2729E+02
  10.092  0.1144E+01  0.2730E+02
  10.102  0.1130E+01  0.2732E+02
  10.112  0.1115E+01  0.2733E+02
  10.122  0.1100E+01  0.2734E+02
  10.132  0.1084E+01  0.2735E+02
  10.142  0.1067E+01  0.2736E+02
  10.152  0.1051E+01  0.2737E+02
  10.162  0.1035E+01  0.2738E+02
  10.172  0.1020E+01  0.2739E+02
  10.182  0.1006E+01  0.2740E+02
  10.192  0.9930E+00  0.2741E+02
  10.202  0.9818E+00  0.2742E+02
  10.212  0.9722E+00  0.2743E+02
  10.222  0.9644E+00  0.2744E+02
  10.232  0.9585E+00  0.2745E+02
  10.242  0.9545E+00  0.2746E+02
  10.252  0.9522E+00  0.2747E+02
  10.262  0.9515E+00  0.2748E+02
  10.272  0.9523E+00  0.2749E+02
  10.282  0.9543E+00  0.2750E+02
  10.292  0.9573E+00  0.2751E+02
  10.302  0.9611E+00  0.2752E+02
  10.312  0.9655E+00  0.2753E+02
  10.322  0.9701E+00  0.2753E+02
  10.332  0.9749E+00  0.2754E+02
  10.342  0.9796E+00  0.2755E+02
  10.352  0.9841E+00  0.2756E+02
  10.362  0.9882E+00  0.2757E+02
  10.372  0.9918E+00  0.2758E+02
  10.382  0.9948E+00  0.2759E+02
  10.392  0.9972E+00  0.2760E+02
  10.402  0.9988E+00  0.2761E+02
  10.412  0.9996E+00  0.2762E+02
  10.422  0.9995E+00  0.2763E+02
  10.432  0.9986E+00  0.2764E+02
  10.442  0.9968E+00  0.2765E+02
  10.452  0.9940E+00  0.2766E+02
  10.462  0.9904E+00  0.2767E+02
  10.472  0.9859E+00  0.2768E+02
  10.482  0.9806E+00  0.2769E+02
  10.492  0.9746E+00  0.2770E+02
  10.502  0.9680E+00  0.2771E+02
  10.512  0.9610E+00  0.2772E+02
  10.522  0.9538E+00  0.2773E+02
  10.532  0.9465E+00  0.2774E+02
  10.542  0.9394E+00  0.2775E+02
  10.552  0.9327E+00  0.2776E+02
  10.562  0.9267E+00  0.2777E+02
  10.572  0.9214E+00  0.2778E+02
  10.582  0.9172E+00  0.2779E+02
  10.592  0.9142E+00  0.2780E+02
  10.602  0.9126E+00  0.2781E+02
  10.612  0.9124E+00  0.2782E+02
  10.622  0.9138E+00  0.2782E+02
  10.632  0.9169E+00  0.2783E+02
  10.642  0.9216E+00  0.2784E+02
  10.652  0.9279E+00  0.2785E+02
  10.662  0.9359E+00  0.2786E+02
  10.672  0.9455E+00  0.2787E+02
  10.682  0.9565E+00  0.2788E+02
  10.692  0.9690E+00  0.2789E+02
  10.702  0.9827E+00  0.2790E+02
  10.712  0.9974E+00  0.2791E+02
  10.722  0.1013E+01  0.2792E+02
  10.732  0.1029E+01  0.2793E+02
  10.742  0.1046E+01  0.2794E+02
  10.752  0.1062E+01  0.2795E+02
  10.762  0.1078E+01  0.2796E+02
  10.772  0.1094E+01  0.2797E+02
  10.782  0.1108E+01  0.2798E+02
  10.792  0.1121E+01  0.2800E+02
  10.802  0.1131E+01  0.2801E+02
  10.812  0.1140E+01  0.2802E+02
  10.822  0.1145E+01  0.2803E+02
  10.832  0.1148E+01  0.2804E+02
  10.842  0.1148E+01  0.2805E+02
  10.852  0.1144E+01  0.2806E+02
  10.862  0.1137E+01  0.2808E+02
  10.872  0.1126E+01  0.2809E+02
  10.882  0.1113E+01  0.2810E+02
  10.892  0.1097E+01  0.2811E+02
  10.902  0.1078E+01  0.2812E+02
  10.912  0.1057E+01  0.2813E+02
  10.922  0.1034E+01  0.2814E+02
  10.932  0.1010E+01  0.2815E+02
  10.942  0.9847E+00  0.2816E+02
  10.952  0.9595E+00  0.2817E+02
  10.962  0.9344E+00  0.2818E+02
  10.972  0.9099E+00  0.2819E+02
  10.982  0.8864E+00  0.2820E+02
  10.992  0.8644E+00  0.2821E+02
  11.002  0.8441E+00  0.2821E+02
  11.012  0.8258E+00  0.2822E+02
  11.022  0.8099E+00  0.2823E+02
  11.032  0.7964E+00  0.2824E+02
  11.042  0.7856E+00  0.2825E+02
  11.052  0.7774E+00  0.2825E+02
  11.062  0.7720E+00  0.2826E+02
  11.072  0.7693E+00  0.2827E+02
  11.082  0.7692E+00  0.2828E+02
  11.092  0.7717E+00  0.2828E+02
  11.102  0.7765E+00  0.2829E+02
  11.112  0.7834E+00  0.2830E+02
  11.122  0.7923E+00  0.2831E+02
  11.132  0.8027E+00  0.2832E+02
  11.142  0.8145E+00  0.2832E+02
  11.152  0.8273E+00  0.2833E+02
  11.162  0.8409E+00  0.2834E+02
  11.172  0.8548E+00  0.2835E+02
  11.182  0.8689E+00  0.2836E+02
  11.192  0.8828E+00  0.2837E+02
  11.202  0.8963E+00  0.2838E+02
  11.212  0.9093E+00  0.2839E+02
  11.222  0.9215E+00  0.2839E+02
  11.232  0.9329E+00  0.2840E+02
  11.242  0.9435E+00  0.2841E+02
  11.252  0.9531E+00  0.2842E+02
  11.262  0.9619E+00  0.2843E+02
  11.272  0.9699E+00  0.2844E+02
  11.282  0.9772E+00  0.2845E+02
  11.292  0.9839E+00  0.2846E+02
  11.302  0.9901E+00  0.2847E+02
  11.312  0.9959E+00  0.2848E+02
  11.322  0.1001E+01  0.2849E+02
  11.332  0.1007E+01  0.2850E+02
  11.342  0.1012E+01  0.2851E+02
  11.352  0.1017E+01  0.2852E+02
  11.362  0.1022E+01  0.2853E+02
  11.372  0.1026E+01  0.2854E+02
  11.382  0.1030E+01  0.2855E+02
  11.392  0.1033E+01  0.2856E+02
  11.402  0.1035E+01  0.2857E+02
  11.412  0.1037E+01  0.2858E+02
  11.422  0.1037E+01  0.2859E+02
  11.432  0.1035E+01  0.2860E+02
  11.442  0.1032E+01  0.2862E+02
  11.452  0.1026E+01  0.2863E+02
  11.462  0.1019E+01  0.2864E+02
  11.472  0.1010E+01  0.2865E+02
  11.482  0.9982E+00  0.2866E+02
  11.492  0.9847E+00  0.2867E+02
  11.502  0.9695E+00  0.2868E+02
  11.512  0.9527E+00  0.2868E+02
  11.522  0.9347E+00  0.2869E+02
  11.532  0.9158E+00  0.2870E+02
  11.542  0.8964E+00  0.2871E+02
  11.552  0.8770E+00  0.2872E+02
  11.562  0.8581E+00  0.2873E+02
  11.572  0.8402E+00  0.2874E+02
  11.582  0.8236E+00  0.2875E+02
  11.592  0.8087E+00  0.2875E+02
  11.602  0.7961E+00  0.2876E+02
  11.612  0.7859E+00  0.2877E+02
  11.622  0.7784E+00  0.2878E+02
  11.632  0.7739E+00  0.2879E+02
  11.642  0.7725E+00  0.2879E+02
  11.652  0.7741E+00  0.2880E+02
  11.662  0.7788E+00  0.2881E+02
  11.672  0.7864E+00  0.2882E+02
  11.682  0.7969E+00  0.2882E+02
  11.692  0.8099E+00  0.2883E+02
  11.702  0.8252E+00  0.2884E+02
  11.712  0.8426E+00  0.2885E+02
  11.722  0.8616E+00  0.2886E+02
  11.732  0.8820E+00  0.2887E+02
  11.742  0.9033E+00  0.2888E+02
  11.752  0.9252E+00  0.2889E+02
  11.762  0.9473E+00  0.2889E+02
  11.772  0.9695E+00  0.2890E+02
  11.782  0.9912E+00  0.2891E+02
  11.792  0.1012E+01  0.2892E+02
  11.802  0.1033E+01  0.2893E+02
  11.812  0.1052E+01  0.2895E+02
  11.822  0.1070E+01  0.2896E+02
  11.832  0.1086E+01  0.2897E+02
  11.842  0.1101E+01  0.2898E+02
  11.852  0.1115E+01  0.2899E+02
  11.862  0.1127E+01  0.2900E+02
  11.872  0.1138E+01  0.2901E+02
  11.882  0.1146E+01  0.2902E+02
  11.892  0.1153E+01  0.2903E+02
  11.902  0.1159E+01  0.2905E+02
  11.912  0.1163E+01  0.2906E+02
  11.922  0.1165E+01  0.2907E+02
  11.932  0.1165E+01  0.2908E+02
  11.942  0.1164E+01  0.2909E+02
  11.952  0.1161E+01  0.2910E+02
  11.962  0.1157E+01  0.2912E+02
  11.972  0.1151E+01  0.2913E+02
  11.982  0.1143E+01  0.2914E+02
  11.992  0.1134E+01  0.2915E+02
  12.002  0.1124E+01  0.2916E+02
  12.012  0.1113E+01  0.2917E+02
  12.022  0.1102E+01  0.2918E+02
  12.032  0.1089E+01  0.2919E+02
  12.042  0.1076E+01  0.2921E+02
  12.052  0.1063E+01  0.2922E+02
  12.062  0.1050E+01  0.2923E+02
  12.072  0.1037E+01  0.2924E+02
  12.082  0.1024E+01  0.2925E+02
  12.092  0.1012E+01  0.2926E+02
  12.102  0.1002E+01  0.2927E+02
  12.112  0.9920E+00  0.2928E+02
  12.122  0.9835E+00  0.2929E+02
  12.132  0.9764E+00  0.2930E+02
  12.142  0.9706E+00  0.2931E+02
  12.152  0.9663E+00  0.2932E+02
  12.162  0.9632E+00  0.2933E+02
  12.172  0.9613E+00  0.2934E+02
  12.182  0.9605E+00  0.2934E+02
  12.192  0.9606E+00  0.2935E+02
  12.202  0.9613E+00  0.2936E+02
  12.212  0.9625E+00  0.2937E+02
  12.222  0.9639E+00  0.2938E+02
  12.232  0.9652E+00  0.2939E+02
  12.242  0.9663E+00  0.2940E+02
  12.252  0.9670E+00  0.2941E+02
  12.262  0.9672E+00  0.2942E+02
  12.272  0.9667E+00  0.2943E+02
  12.282  0.9655E+00  0.2944E+02
  12.292  0.9635E+00  0.2945E+02
  12.302  0.9608E+00  0.2946E+02
  12.312  0.9574E+00  0.2947E+02
  12.322  0.9534E+00  0.2948E+02
  12.332  0.9488E+00  0.2949E+02
  12.342  0.9437E+00  0.2950E+02
  12.352  0.9382E+00  0.2951E+02
  12.362  0.9323E+00  0.2952E+02
  12.372  0.9260E+00  0.2953E+02
  12.382  0.9194E+00  0.2954E+02
  12.392  0.9124E+00  0.2954E+02
  12.402  0.9051E+00  0.2955E+02
  12.412  0.8975E+00  0.2956E+02
  12.422  0.8894E+00  0.2957E+02
  12.432  0.8810E+00  0.2958E+02
  12.442  0.8722E+00  0.2959E+02
  12.452  0.8631E+00  0.2960E+02
  12.462  0.8538E+00  0.2961E+02
  12.472  0.8442E+00  0.2961E+02
  12.482  0.8347E+00  0.2962E+02
  12.492  0.8253E+00  0.2963E+02
  12.502  0.8163E+00  0.2964E+02
  12.512  0.8078E+00  0.2965E+02
  12.522  0.8002E+00  0.2966E+02
  12.532  0.7936E+00  0.2966E+02
  12.542  0.7883E+00  0.2967E+02
  12.552  0.7845E+00  0.2968E+02
  12.562  0.7824E+00  0.2969E+02
  12.572  0.7821E+00  0.2970E+02
  12.582  0.7837E+00  0.2970E+02
  12.592  0.7873E+00  0.2971E+02
  12.602  0.7927E+00  0.2972E+02
  12.612  0.8000E+00  0.2973E+02
  12.622  0.8090E+00  0.2973E+02
  12.632  0.8195E+00  0.2974E+02
  12.642  0.8313E+00  0.2975E+02
  12.652  0.8441E+00  0.2976E+02
  12.662  0.8578E+00  0.2977E+02
  12.672  0.8721E+00  0.2978E+02
  12.682  0.8868E+00  0.2979E+02
  12.692  0.9017E+00  0.2979E+02
  12.702  0.9167E+00  0.2980E+02
  12.712  0.9317E+00  0.2981E+02
  12.722  0.9467E+00  0.2982E+02
  12.732  0.9616E+00  0.2983E+02
  12.742  0.9765E+00  0.2984E+02
  12.752  0.9913E+00  0.2985E+02
  12.762  0.1006E+01  0.2986E+02
  12.772  0.1021E+01  0.2987E+02
  12.782  0.1036E+01  0.2988E+02
  12.792  0.1051E+01  0.2989E+02
  12.802  0.1066E+01  0.2990E+02
  12.812  0.1080E+01  0.2991E+02
  12.822  0.1094E+01  0.2993E+02
  12.832  0.1108E+01  0.2994E+02
  12.842  0.1121E+01  0.2995E+02
  12.852  0.1133E+01  0.2996E+02
  12.862  0.1143E+01  0.2997E+02
  12.872  0.1152E+01  0.2998E+02
  12.882  0.1159E+01  0.2999E+02
  12.892  0.1165E+01  0.3001E+02
  12.902  0.1168E+01  0.3002E+02
  12.912  0.1169E+01  0.3003E+02
  12.922  0.1168E+01  0.3004E+02
  12.932  0.1165E+01  0.3005E+02
  12.942  0.1160E+01  0.3006E+02
  12.952  0.1154E+01  0.3008E+02
  12.962  0.1146E+01  0.3009E+02
  12.972  0.1137E+01  0.3010E+02
  12.982  0.1128E+01  0.3011E+02
  12.992  0.1118E+01  0.3012E+02
  13.002  0.1108E+01  0.3013E+02
  13.012  0.1098E+01  0.3014E+02
  13.022  0.1089E+01  0.3015E+02
  13.032  0.1080E+01  0.3016E+02
  13.042  0.1073E+01  0.3018E+02
  13.052  0.1066E+01  0.3019E+02
  13.062  0.1061E+01  0.3020E+02
  13.072  0.1057E+01  0.3021E+02
  13.082  0.1053E+01  0.3022E+02
  13.092  0.1051E+01  0.3023E+02
  13.102  0.1050E+01  0.3024E+02
  13.112  0.1050E+01  0.3025E+02
  13.122  0.1050E+01  0.3026E+02
  13.132  0.1051E+01  0.3027E+02
  13.142  0.1052E+01  0.3028E+02
  13.152  0.1054E+01  0.3029E+02
  13.162  0.1055E+01  0.3030E+02
  13.172  0.1057E+01  0.3031E+02
  13.182  0.1059E+01  0.3032E+02
  13.192  0.1060E+01  0.3033E+02
  13.202  0.1061E+01  0.3034E+02
  13.212  0.1062E+01  0.3035E+02
  13.222  0.1063E+01  0.3037E+02
  13.232  0.1063E+01  0.3038E+02
  13.242  0.1063E+01  0.3039E+02
  13.252  0.1062E+01  0.3040E+02
  13.262  0.1062E+01  0.3041E+02
  13.272  0.1060E+01  0.3042E+02
  13.282  0.1059E+01  0.3043E+02
  13.292  0.1057E+01  0.3044E+02
  13.302  0.1055E+01  0.3045E+02
  13.312  0.1054E+01  0.3046E+02
  13.322  0.1052E+01  0.3047E+02
  13.332  0.1050E+01  0.3048E+02
  13.342  0.1049E+01  0.3049E+02
  13.352  0.1048E+01  0.3050E+02
  13.362  0.1047E+01  0.3051E+02
  13.372  0.1047E+01  0.3052E+02
  13.382  0.1048E+01  0.3053E+02
  13.392  0.1049E+01  0.3054E+02
  13.402  0.1051E+01  0.3055E+02
  13.412  0.1054E+01  0.3057E+02
  13.422  0.1058E+01  0.3058E+02
  13.432  0.1062E+01  0.3059E+02
  13.442  0.1068E+01  0.3060E+02
  13.452  0.1075E+01  0.3061E+02
  13.462  0.1082E+01  0.3062E+02
  13.472  0.1090E+01  0.3063E+02
  13.482  0.1098E+01  0.3064E+02
  13.492  0.1107E+01  0.3065E+02
  13.502  0.1116E+01  0.3066E+02
  13.512  0.1125E+01  0.3067E+02
  13.522  0.1133E+01  0.3069E+02
  13.532  0.1141E+01  0.3070E+02
  13.542  0.1149E+01  0.3071E+02
  13.552  0.1155E+01  0.3072E+02
  13.562  0.1161E+01  0.3073E+02
  13.572  0.1165E+01  0.3074E+02
  13.582  0.1169E+01  0.3076E+02
  13.592  0.1171E+01  0.3077E+02
  13.602  0.1173E+01  0.3078E+02
  13.612  0.1173E+01  0.3079E+02
  13.622  0.1174E+01  0.3080E+02
  13.632  0.1174E+01  0.3081E+02
  13.642  0.1174E+01  0.3083E+02
  13.652  0.1174E+01  0.3084E+02
  13.662  0.1175E+01  0.3085E+02
  13.672  0.1176E+01  0.3086E+02
  13.682  0.1177E+01  0.3087E+02
  13.692  0.1179E+01  0.3088E+02
  13.702  0.1181E+01  0.3090E+02
  13.712  0.1184E+01  0.3091E+02
  13.722  0.1187E+01  0.3092E+02
  13.732  0.1189E+01  0.3093E+02
  13.742  0.1192E+01  0.3094E+02
  13.752  0.1194E+01  0.3096E+02
  13.762  0.1195E+01  0.3097E+02
  13.772  0.1195E+01  0.3098E+02
  13.782  0.1195E+01  0.3099E+02
  13.792  0.1193E+01  0.3100E+02
  13.802  0.1190E+01  0.3102E+02
  13.812  0.1187E+01  0.3103E+02
  13.822  0.1182E+01  0.3104E+02
  13.832  0.1178E+01  0.3105E+02
  13.842  0.1172E+01  0.3106E+02
  13.852  0.1167E+01  0.3107E+02
  13.862  0.1163E+01  0.3109E+02
  13.872  0.1159E+01  0.3110E+02
  13.882  0.1156E+01  0.3111E+02
  13.892  0.1154E+01  0.3112E+02
  13.902  0.1154E+01  0.3113E+02
  13.912  0.1155E+01  0.3114E+02
  13.922  0.1159E+01  0.3116E+02
  13.932  0.1164E+01  0.3117E+02
  13.942  0.1170E+01  0.3118E+02
  13.952  0.1179E+01  0.3119E+02
  13.962  0.1189E+01  0.3120E+02
  13.972  0.1200E+01  0.3121E+02
  13.982  0.1213E+01  0.3123E+02
  13.992  0.1226E+01  0.3124E+02
  14.002  0.1240E+01  0.3125E+02
  14.012  0.1255E+01  0.3126E+02
  14.022  0.1270E+01  0.3128E+02
  14.032  0.1284E+01  0.3129E+02
  14.042  0.1299E+01  0.3130E+02
  14.052  0.1313E+01  0.3132E+02
  14.062  0.1327E+01  0.3133E+02
  14.072  0.1340E+01  0.3134E+02
  14.082  0.1353E+01  0.3136E+02
  14.092  0.1364E+01  0.3137E+02
  14.102  0.1375E+01  0.3138E+02
  14.112  0.1384E+01  0.3140E+02
  14.122  0.1393E+01  0.3141E+02
  14.132  0.1400E+01  0.3142E+02
  14.142  0.1406E+01  0.3144E+02
  14.152  0.1410E+01  0.3145E+02
  14.162  0.1413E+01  0.3147E+02
  14.172  0.1414E+01  0.3148E+02
  14.182  0.1414E+01  0.3149E+02
  14.192  0.1412E+01  0.3151E+02
  14.202  0.1409E+01  0.3152E+02
  14.212  0.1404E+01  0.3154E+02
  14.222  0.1398E+01  0.3155E+02
  14.232  0.1390E+01  0.3157E+02
  14.242  0.1381E+01  0.3158E+02
  14.252  0.1371E+01  0.3159E+02
  14.262  0.1359E+01  0.3161E+02
  14.272  0.1347E+01  0.3162E+02
  14.282  0.1334E+01  0.3163E+02
  14.292  0.1321E+01  0.3165E+02
  14.302  0.1307E+01  0.3166E+02
  14.312  0.1292E+01  0.3167E+02
  14.322  0.1278E+01  0.3169E+02
  14.332  0.1264E+01  0.3170E+02
  14.342  0.1250E+01  0.3171E+02
  14.352  0.1236E+01  0.3172E+02
  14.362  0.1223E+01  0.3173E+02
  14.372  0.1211E+01  0.3175E+02
  14.382  0.1199E+01  0.3176E+02
  14.392  0.1189E+01  0.3177E+02
  14.402  0.1180E+01  0.3178E+02
  14.412  0.1172E+01  0.3179E+02
  14.422  0.1165E+01  0.3181E+02
  14.432  0.1160E+01  0.3182E+02
  14.442  0.1157E+01  0.3183E+02
  14.452  0.1155E+01  0.3184E+02
  14.462  0.1156E+01  0.3185E+02
  14.472  0.1158E+01  0.3186E+02
  14.482  0.1163E+01  0.3188E+02
  14.492  0.1169E+01  0.3189E+02
  14.502  0.1178E+01  0.3190E+02
  14.512  0.1190E+01  0.3191E+02
  14.522  0.1203E+01  0.3192E+02
  14.532  0.1219E+01  0.3193E+02
  14.542  0.1237E+01  0.3195E+02
  14.552  0.1257E+01  0.3196E+02
  14.562  0.1280E+01  0.3197E+02
  14.572  0.1303E+01  0.3199E+02
  14.582  0.1329E+01  0.3200E+02
  14.592  0.1355E+01  0.3201E+02
  14.602  0.1383E+01  0.3203E+02
  14.612  0.1411E+01  0.3204E+02
  14.622  0.1439E+01  0.3205E+02
  14.632  0.1467E+01  0.3207E+02
  14.642  0.1495E+01  0.3208E+02
  14.652  0.1521E+01  0.3210E+02
  14.662  0.1545E+01  0.3212E+02
  14.672  0.1568E+01  0.3213E+02
  14.682  0.1588E+01  0.3215E+02
  14.692  0.1606E+01  0.3216E+02
  14.702  0.1621E+01  0.3218E+02
  14.712  0.1634E+01  0.3220E+02
  14.722  0.1643E+01  0.3221E+02
  14.732  0.1650E+01  0.3223E+02
  14.742  0.1655E+01  0.3224E+02
  14.752  0.1657E+01  0.3226E+02
  14.762  0.1658E+01  0.3228E+02
  14.772  0.1657E+01  0.3229E+02
  14.782  0.1654E+01  0.3231E+02
  14.792  0.1650E+01  0.3233E+02
  14.802  0.1646E+01  0.3234E+02
  14.812  0.1641E+01  0.3236E+02
  14.822  0.1635E+01  0.3238E+02
  14.832  0.1629E+01  0.3239E+02
  14.842  0.1622E+01  0.3241E+02
  14.852  0.1614E+01  0.3243E+02
  14.862  0.1606E+01  0.3244E+02
  14.872  0.1596E+01  0.3246E+02
  14.882  0.1586E+01  0.3247E+02
  14.892  0.1574E+01  0.3249E+02
  14.902  0.1561E+01  0.3250E+02
  14.912  0.1547E+01  0.3252E+02
  14.922  0.1532E+01  0.3254E+02
  14.932  0.1515E+01  0.3255E+02
  14.942  0.1498E+01  0.3257E+02
  14.952  0.1481E+01  0.3258E+02
  14.962  0.1465E+01  0.3260E+02
  14.972  0.1449E+01  0.3261E+02
  14.982  0.1435E+01  0.3262E+02
  14.992  0.1423E+01  0.3264E+02
  15.002  0.1414E+01  0.3265E+02
  15.012  0.1408E+01  0.3267E+02
  15.022  0.1407E+01  0.3268E+02
  15.032  0.1409E+01  0.3269E+02
  15.042  0.1416E+01  0.3271E+02
  15.052  0.1428E+01  0.3272E+02
  15.062  0.1444E+01  0.3274E+02
  15.072  0.1465E+01  0.3275E+02
  15.082  0.1490E+01  0.3277E+02
  15.092  0.1519E+01  0.3278E+02
  15.102  0.1550E+01  0.3280E+02
  15.112  0.1584E+01  0.3281E+02
  15.122  0.1620E+01  0.3283E+02
  15.132  0.1656E+01  0.3285E+02
  15.142  0.1692E+01  0.3286E+02
  15.152  0.1728E+01  0.3288E+02
  15.162  0.1761E+01  0.3290E+02
  15.172  0.1792E+01  0.3292E+02
  15.182  0.1820E+01  0.3293E+02
  15.192  0.1843E+01  0.3295E+02
  15.202  0.1861E+01  0.3297E+02
  15.212  0.1874E+01  0.3299E+02
  15.222  0.1882E+01  0.3301E+02
  15.232  0.1884E+01  0.3303E+02
  15.242  0.1879E+01  0.3305E+02
  15.252  0.1868E+01  0.3307E+02
  15.262  0.1852E+01  0.3308E+02
  15.272  0.1829E+01  0.3310E+02
  15.282  0.1801E+01  0.3312E+02
  15.292  0.1769E+01  0.3314E+02
  15.302  0.1732E+01  0.3315E+02
  15.312  0.1692E+01  0.3317E+02
  15.322  0.1649E+01  0.3319E+02
  15.332  0.1604E+01  0.3320E+02
  15.342  0.1558E+01  0.3322E+02
  15.352  0.1511E+01  0.3324E+02
  15.362  0.1466E+01  0.3325E+02
  15.372  0.1421E+01  0.3326E+02
  15.382  0.1379E+01  0.3328E+02
  15.392  0.1340E+01  0.3329E+02
  15.402  0.1304E+01  0.3330E+02
  15.412  0.1271E+01  0.3332E+02
  15.422  0.1243E+01  0.3333E+02
  15.432  0.1218E+01  0.3334E+02
  15.442  0.1198E+01  0.3335E+02
  15.452  0.1183E+01  0.3337E+02
  15.462  0.1172E+01  0.3338E+02
  15.472  0.1165E+01  0.3339E+02
  15.482  0.1161E+01  0.3340E+02
  15.492  0.1162E+01  0.3341E+02
  15.502  0.1166E+01  0.3342E+02
  15.512  0.1172E+01  0.3344E+02
  15.522  0.1182E+01  0.3345E+02
  15.532  0.1193E+01  0.3346E+02
  15.542  0.1207E+01  0.3347E+02
  15.552  0.1222E+01  0.3348E+02
  15.562  0.1238E+01  0.3350E+02
  15.572  0.1255E+01  0.3351E+02
  15.582  0.1272E+01  0.3352E+02
  15.592  0.1289E+01  0.3353E+02
  15.602  0.1307E+01  0.3355E+02
  15.612  0.1323E+01  0.3356E+02
  15.622  0.1339E+01  0.3357E+02
  15.632  0.1354E+01  0.3359E+02
  15.642  0.1368E+01  0.3360E+02
  15.652  0.1380E+01  0.3361E+02
  15.662  0.1390E+01  0.3363E+02
  15.672  0.1399E+01  0.3364E+02
  15.682  0.1406E+01  0.3366E+02
  15.692  0.1410E+01  0.3367E+02
  15.702  0.1413E+01  0.3368E+02
  15.712  0.1413E+01  0.3370E+02
  15.722  0.1411E+01  0.3371E+02
  15.732  0.1407E+01  0.3373E+02
  15.742  0.1400E+01  0.3374E+02
  15.752  0.1392E+01  0.3376E+02
  15.762  0.1382E+01  0.3377E+02
  15.772  0.1370E+01  0.3378E+02
  15.782  0.1356E+01  0.3380E+02
  15.792  0.1342E+01  0.3381E+02
  15.802  0.1326E+01  0.3382E+02
  15.812  0.1309E+01  0.3384E+02
  15.822  0.1292E+01  0.3385E+02
  15.832  0.1274E+01  0.3386E+02
  15.842  0.1256E+01  0.3387E+02
  15.852  0.1238E+01  0.3389E+02
  15.862  0.1221E+01  0.3390E+02
  15.872  0.1205E+01  0.3391E+02
  15.882  0.1189E+01  0.3392E+02
  15.892  0.1175E+01  0.3393E+02
  15.902  0.1162E+01  0.3395E+02
  15.912  0.1152E+01  0.3396E+02
  15.922  0.1143E+01  0.3397E+02
  15.932  0.1136E+01  0.3398E+02
  15.942  0.1131E+01  0.3399E+02
  15.952  0.1129E+01  0.3400E+02
  15.962  0.1129E+01  0.3401E+02
  15.972  0.1132E+01  0.3403E+02
  15.982  0.1137E+01  0.3404E+02
  15.992  0.1146E+01  0.3405E+02
  16.002  0.1156E+01  0.3406E+02
  16.012  0.1170E+01  0.3407E+02
  16.022  0.1185E+01  0.3408E+02
  16.032  0.1203E+01  0.3410E+02
  16.042  0.1223E+01  0.3411E+02
  16.052  0.1245E+01  0.3412E+02
  16.062  0.1268E+01  0.3413E+02
  16.072  0.1292E+01  0.3415E+02
  16.082  0.1317E+01  0.3416E+02
  16.092  0.1342E+01  0.3417E+02
  16.102  0.1367E+01  0.3419E+02
  16.112  0.1391E+01  0.3420E+02
  16.122  0.1414E+01  0.3421E+02
  16.132  0.1436E+01  0.3423E+02
  16.142  0.1456E+01  0.3424E+02
  16.152  0.1473E+01  0.3426E+02
  16.162  0.1488E+01  0.3427E+02
  16.172  0.1500E+01  0.3429E+02
  16.182  0.1510E+01  0.3430E+02
  16.192  0.1516E+01  0.3432E+02
  16.202  0.1520E+01  0.3433E+02
  16.212  0.1520E+01  0.3435E+02
  16.222  0.1518E+01  0.3436E+02
  16.232  0.1513E+01  0.3438E+02
  16.242  0.1506E+01  0.3439E+02
  16.252  0.1496E+01  0.3441E+02
  16.262  0.1484E+01  0.3442E+02
  16.272  0.1470E+01  0.3444E+02
  16.282  0.1454E+01  0.3445E+02
  16.292  0.1437E+01  0.3447E+02
  16.302  0.1418E+01  0.3448E+02
  16.312  0.1398E+01  0.3450E+02
  16.322  0.1377E+01  0.3451E+02
  16.332  0.1354E+01  0.3452E+02
  16.342  0.1331E+01  0.3454E+02
  16.352  0.1307E+01  0.3455E+02
  16.362  0.1283E+01  0.3456E+02
  16.372  0.1258E+01  0.3457E+02
  16.382  0.1234E+01  0.3459E+02
  16.392  0.1210E+01  0.3460E+02
  16.402  0.1186E+01  0.3461E+02
  16.412  0.1163E+01  0.3462E+02
  16.422  0.1142E+01  0.3463E+02
  16.432  0.1122E+01  0.3464E+02
  16.442  0.1104E+01  0.3466E+02
  16.452  0.1088E+01  0.3467E+02
  16.462  0.1074E+01  0.3468E+02
  16.472  0.1062E+01  0.3469E+02
  16.482  0.1052E+01  0.3470E+02
  16.492  0.1045E+01  0.3471E+02
  16.502  0.1041E+01  0.3472E+02
  16.512  0.1038E+01  0.3473E+02
  16.522  0.1038E+01  0.3474E+02
  16.532  0.1039E+01  0.3475E+02
  16.542  0.1042E+01  0.3476E+02
  16.552  0.1046E+01  0.3477E+02
  16.562  0.1051E+01  0.3478E+02
  16.572  0.1057E+01  0.3479E+02
  16.582  0.1063E+01  0.3480E+02
  16.592  0.1070E+01  0.3481E+02
  16.602  0.1077E+01  0.3482E+02
  16.612  0.1083E+01  0.3484E+02
  16.622  0.1090E+01  0.3485E+02
  16.632  0.1097E+01  0.3486E+02
  16.642  0.1103E+01  0.3487E+02
  16.652  0.1110E+01  0.3488E+02
  16.662  0.1116E+01  0.3489E+02
  16.672  0.1124E+01  0.3490E+02
  16.682  0.1132E+01  0.3491E+02
  16.692  0.1141E+01  0.3492E+02
  16.702  0.1152E+01  0.3494E+02
  16.712  0.1165E+01  0.3495E+02
  16.722  0.1179E+01  0.3496E+02
  16.732  0.1195E+01  0.3497E+02
  16.742  0.1213E+01  0.3498E+02
  16.752  0.1233E+01  0.3500E+02
  16.762  0.1255E+01  0.3501E+02
  16.772  0.1278E+01  0.3502E+02
  16.782  0.1302E+01  0.3503E+02
  16.792  0.1327E+01  0.3505E+02
  16.802  0.1352E+01  0.3506E+02
  16.812  0.1377E+01  0.3507E+02
  16.822  0.1400E+01  0.3509E+02
  16.832  0.1422E+01  0.3510E+02
  16.842  0.1442E+01  0.3512E+02
  16.852  0.1459E+01  0.3513E+02
  16.862  0.1473E+01  0.3515E+02
  16.872  0.1483E+01  0.3516E+02
  16.882  0.1490E+01  0.3518E+02
  16.892  0.1493E+01  0.3519E+02
  16.902  0.1493E+01  0.3521E+02
  16.912  0.1489E+01  0.3522E+02
  16.922  0.1481E+01  0.3524E+02
  16.932  0.1471E+01  0.3525E+02
  16.942  0.1458E+01  0.3527E+02
  16.952  0.1443E+01  0.3528E+02
  16.962  0.1426E+01  0.3529E+02
  16.972  0.1409E+01  0.3531E+02
  16.982  0.1391E+01  0.3532E+02
  16.992  0.1373E+01  0.3534E+02
  17.002  0.1357E+01  0.3535E+02
  17.012  0.1341E+01  0.3536E+02
  17.022  0.1327E+01  0.3538E+02
  17.032  0.1316E+01  0.3539E+02
  17.042  0.1307E+01  0.3540E+02
  17.052  0.1300E+01  0.3542E+02
  17.062  0.1297E+01  0.3543E+02
  17.072  0.1296E+01  0.3544E+02
  17.082  0.1298E+01  0.3545E+02
  17.092  0.1304E+01  0.3547E+02
  17.102  0.1311E+01  0.3548E+02
  17.112  0.1321E+01  0.3549E+02
  17.122  0.1333E+01  0.3551E+02
  17.132  0.1346E+01  0.3552E+02
  17.142  0.1360E+01  0.3553E+02
  17.152  0.1375E+01  0.3555E+02
  17.162  0.1389E+01  0.3556E+02
  17.172  0.1403E+01  0.3558E+02
  17.182  0.1415E+01  0.3559E+02
  17.192  0.1426E+01  0.3560E+02
  17.202  0.1435E+01  0.3562E+02
  17.212  0.1441E+01  0.3563E+02
  17.222  0.1444E+01  0.3565E+02
  17.232  0.1445E+01  0.3566E+02
  17.242  0.1442E+01  0.3568E+02
  17.252  0.1436E+01  0.3569E+02
  17.262  0.1427E+01  0.3570E+02
  17.272  0.1415E+01  0.3572E+02
  17.282  0.1400E+01  0.3573E+02
  17.292  0.1383E+01  0.3575E+02
  17.302  0.1364E+01  0.3576E+02
  17.312  0.1344E+01  0.3577E+02
  17.322  0.1323E+01  0.3579E+02
  17.332  0.1302E+01  0.3580E+02
  17.342  0.1282E+01  0.3581E+02
  17.352  0.1262E+01  0.3583E+02
  17.362  0.1244E+01  0.3584E+02
  17.372  0.1228E+01  0.3585E+02
  17.382  0.1214E+01  0.3586E+02
  17.392  0.1203E+01  0.3587E+02
  17.402  0.1194E+01  0.3589E+02
  17.412  0.1189E+01  0.3590E+02
  17.422  0.1186E+01  0.3591E+02
  17.432  0.1187E+01  0.3592E+02
  17.442  0.1191E+01  0.3593E+02
  17.452  0.1197E+01  0.3595E+02
  17.462  0.1205E+01  0.3596E+02
  17.472  0.1216E+01  0.3597E+02
  17.482  0.1228E+01  0.3598E+02
  17.492  0.1241E+01  0.3599E+02
  17.502  0.1255E+01  0.3601E+02
  17.512  0.1270E+01  0.3602E+02
  17.522  0.1284E+01  0.3603E+02
  17.532  0.1297E+01  0.3605E+02
  17.542  0.1309E+01  0.3606E+02
  17.552  0.1320E+01  0.3607E+02
  17.562  0.1329E+01  0.3609E+02
  17.572  0.1336E+01  0.3610E+02
  17.582  0.1340E+01  0.3611E+02
  17.592  0.1342E+01  0.3613E+02
  17.602  0.1341E+01  0.3614E+02
  17.612  0.1337E+01  0.3615E+02
  17.622  0.1330E+01  0.3617E+02
  17.632  0.1320E+01  0.3618E+02
  17.642  0.1307E+01  0.3619E+02
  17.652  0.1292E+01  0.3620E+02
  17.662  0.1275E+01  0.3622E+02
  17.672  0.1255E+01  0.3623E+02
  17.682  0.1235E+01  0.3624E+02
  17.692  0.1213E+01  0.3625E+02
  17.702  0.1190E+01  0.3627E+02
  17.712  0.1167E+01  0.3628E+02
  17.722  0.1144E+01  0.3629E+02
  17.732  0.1122E+01  0.3630E+02
  17.742  0.1101E+01  0.3631E+02
  17.752  0.1081E+01  0.3632E+02
  17.762  0.1064E+01  0.3633E+02
  17.772  0.1049E+01  0.3634E+02
  17.782  0.1036E+01  0.3635E+02
  17.792  0.1026E+01  0.3636E+02
  17.802  0.1019E+01  0.3637E+02
  17.812  0.1016E+01  0.3638E+02
  17.822  0.1015E+01  0.3639E+02
  17.832  0.1017E+01  0.3641E+02
  17.842  0.1021E+01  0.3642E+02
  17.852  0.1028E+01  0.3643E+02
  17.862  0.1037E+01  0.3644E+02
  17.872  0.1048E+01  0.3645E+02
  17.882  0.1059E+01  0.3646E+02
  17.892  0.1072E+01  0.3647E+02
  17.902  0.1084E+01  0.3648E+02
  17.912  0.1095E+01  0.3649E+02
  17.922  0.1106E+01  0.3650E+02
  17.932  0.1116E+01  0.3651E+02
  17.942  0.1124E+01  0.3652E+02
  17.952  0.1130E+01  0.3653E+02
  17.962  0.1134E+01  0.3655E+02
  17.972  0.1136E+01  0.3656E+02
  17.982  0.1136E+01  0.3657E+02
  17.992  0.1134E+01  0.3658E+02
  18.002  0.1130E+01  0.3659E+02
  18.012  0.1125E+01  0.3660E+02
  18.022  0.1119E+01  0.3661E+02
  18.032  0.1112E+01  0.3662E+02
  18.042  0.1105E+01  0.3664E+02
  18.052  0.1098E+01  0.3665E+02
  18.062  0.1091E+01  0.3666E+02
  18.072  0.1084E+01  0.3667E+02
  18.082  0.1078E+01  0.3668E+02
  18.092  0.1073E+01  0.3669E+02
  18.102  0.1068E+01  0.3670E+02
  18.112  0.1065E+01  0.3671E+02
  18.122  0.1062E+01  0.3672E+02
  18.132  0.1060E+01  0.3673E+02
  18.142  0.1059E+01  0.3674E+02
  18.152  0.1059E+01  0.3675E+02
  18.162  0.1058E+01  0.3676E+02
  18.172  0.1058E+01  0.3677E+02
  18.182  0.1058E+01  0.3679E+02
  18.192  0.1058E+01  0.3680E+02
  18.202  0.1057E+01  0.3681E+02
  18.212  0.1057E+01  0.3682E+02
  18.222  0.1056E+01  0.3683E+02
  18.232  0.1055E+01  0.3684E+02
  18.242  0.1054E+01  0.3685E+02
  18.252  0.1053E+01  0.3686E+02
  18.262  0.1052E+01  0.3687E+02
  18.272  0.1052E+01  0.3688E+02
  18.282  0.1052E+01  0.3689E+02
  18.292  0.1052E+01  0.3690E+02
  18.302  0.1053E+01  0.3691E+02
  18.312  0.1054E+01  0.3692E+02
  18.322  0.1056E+01  0.3693E+02
  18.332  0.1059E+01  0.3694E+02
  18.342  0.1062E+01  0.3695E+02
  18.352  0.1066E+01  0.3696E+02
  18.362  0.1070E+01  0.3698E+02
  18.372  0.1075E+01  0.3699E+02
  18.382  0.1079E+01  0.3700E+02
  18.392  0.1083E+01  0.3701E+02
  18.402  0.1088E+01  0.3702E+02
  18.412  0.1092E+01  0.3703E+02
  18.422  0.1096E+01  0.3704E+02
  18.432  0.1099E+01  0.3705E+02
  18.442  0.1102E+01  0.3706E+02
  18.452  0.1105E+01  0.3707E+02
  18.462  0.1107E+01  0.3708E+02
  18.472  0.1110E+01  0.3710E+02
  18.482  0.1112E+01  0.3711E+02
  18.492  0.1114E+01  0.3712E+02
  18.502  0.1116E+01  0.3713E+02
  18.512  0.1117E+01  0.3714E+02
  18.522  0.1119E+01  0.3715E+02
  18.532  0.1121E+01  0.3716E+02
  18.542  0.1122E+01  0.3717E+02
  18.552  0.1123E+01  0.3719E+02
  18.562  0.1124E+01  0.3720E+02
  18.572  0.1124E+01  0.3721E+02
  18.582  0.1124E+01  0.3722E+02
  18.592  0.1124E+01  0.3723E+02
  18.602  0.1123E+01  0.3724E+02
  18.612  0.1123E+01  0.3725E+02
  18.622  0.1122E+01  0.3726E+02
  18.632  0.1122E+01  0.3728E+02
  18.642  0.1122E+01  0.3729E+02
  18.652  0.1123E+01  0.3730E+02
  18.662  0.1125E+01  0.3731E+02
  18.672  0.1129E+01  0.3732E+02
  18.682  0.1134E+01  0.3733E+02
  18.692  0.1141E+01  0.3734E+02
  18.702  0.1149E+01  0.3735E+02
  18.712  0.1160E+01  0.3737E+02
  18.722  0.1173E+01  0.3738E+02
  18.732  0.1187E+01  0.3739E+02
  18.742  0.1202E+01  0.3740E+02
  18.752  0.1218E+01  0.3741E+02
  18.762  0.1235E+01  0.3743E+02
  18.772  0.1251E+01  0.3744E+02
  18.782  0.1267E+01  0.3745E+02
  18.792  0.1281E+01  0.3746E+02
  18.802  0.1293E+01  0.3748E+02
  18.812  0.1303E+01  0.3749E+02
  18.822  0.1311E+01  0.3750E+02
  18.832  0.1315E+01  0.3752E+02
  18.842  0.1316E+01  0.3753E+02
  18.852  0.1313E+01  0.3754E+02
  18.862  0.1307E+01  0.3756E+02
  18.872  0.1298E+01  0.3757E+02
  18.882  0.1286E+01  0.3758E+02
  18.892  0.1271E+01  0.3759E+02
  18.902  0.1254E+01  0.3761E+02
  18.912  0.1234E+01  0.3762E+02
  18.922  0.1214E+01  0.3763E+02
  18.932  0.1192E+01  0.3764E+02
  18.942  0.1171E+01  0.3765E+02
  18.952  0.1149E+01  0.3767E+02
  18.962  0.1128E+01  0.3768E+02
  18.972  0.1109E+01  0.3769E+02
  18.982  0.1091E+01  0.3770E+02
  18.992  0.1075E+01  0.3771E+02
  19.002  0.1062E+01  0.3772E+02
  19.012  0.1051E+01  0.3773E+02
  19.022  0.1043E+01  0.3774E+02
  19.032  0.1037E+01  0.3775E+02
  19.042  0.1035E+01  0.3776E+02
  19.052  0.1035E+01  0.3777E+02
  19.062  0.1037E+01  0.3778E+02
  19.072  0.1043E+01  0.3779E+02
  19.082  0.1050E+01  0.3780E+02
  19.092  0.1059E+01  0.3781E+02
  19.102  0.1069E+01  0.3783E+02
  19.112  0.1081E+01  0.3784E+02
  19.122  0.1093E+01  0.3785E+02
  19.132  0.1106E+01  0.3786E+02
  19.142  0.1119E+01  0.3787E+02
  19.152  0.1131E+01  0.3788E+02
  19.162  0.1143E+01  0.3789E+02
  19.172  0.1154E+01  0.3790E+02
  19.182  0.1164E+01  0.3792E+02
  19.192  0.1172E+01  0.3793E+02
  19.202  0.1179E+01  0.3794E+02
  19.212  0.1183E+01  0.3795E+02
  19.222  0.1186E+01  0.3796E+02
  19.232  0.1187E+01  0.3797E+02
  19.242  0.1186E+01  0.3799E+02
  19.252  0.1183E+01  0.3800E+02
  19.262  0.1179E+01  0.3801E+02
  19.272  0.1173E+01  0.3802E+02
  19.282  0.1166E+01  0.3803E+02
  19.292  0.1159E+01  0.3805E+02
  19.302  0.1150E+01  0.3806E+02
  19.312  0.1142E+01  0.3807E+02
  19.322  0.1133E+01  0.3808E+02
  19.332  0.1126E+01  0.3809E+02
  19.342  0.1119E+01  0.3810E+02
  19.352  0.1114E+01  0.3811E+02
  19.362  0.1110E+01  0.3812E+02
  19.372  0.1108E+01  0.3814E+02
  19.382  0.1109E+01  0.3815E+02
  19.392  0.1112E+01  0.3816E+02
  19.402  0.1117E+01  0.3817E+02
  19.412  0.1125E+01  0.3818E+02
  19.422  0.1136E+01  0.3819E+02
  19.432  0.1149E+01  0.3820E+02
  19.442  0.1164E+01  0.3821E+02
  19.452  0.1182E+01  0.3823E+02
  19.462  0.1202E+01  0.3824E+02
  19.472  0.1224E+01  0.3825E+02
  19.482  0.1247E+01  0.3826E+02
  19.492  0.1272E+01  0.3828E+02
  19.502  0.1298E+01  0.3829E+02
  19.512  0.1324E+01  0.3830E+02
  19.522  0.1352E+01  0.3832E+02
  19.532  0.1379E+01  0.3833E+02
  19.542  0.1406E+01  0.3834E+02
  19.552  0.1432E+01  0.3836E+02
  19.562  0.1458E+01  0.3837E+02
  19.572  0.1482E+01  0.3839E+02
  19.582  0.1505E+01  0.3840E+02
  19.592  0.1525E+01  0.3842E+02
  19.602  0.1544E+01  0.3843E+02
  19.612  0.1559E+01  0.3845E+02
  19.622  0.1572E+01  0.3846E+02
  19.632  0.1581E+01  0.3848E+02
  19.642  0.1587E+01  0.3850E+02
  19.652  0.1589E+01  0.3851E+02
  19.662  0.1587E+01  0.3853E+02
  19.672  0.1582E+01  0.3854E+02
  19.682  0.1572E+01  0.3856E+02
  19.692  0.1559E+01  0.3857E+02
  19.702  0.1543E+01  0.3859E+02
  19.712  0.1524E+01  0.3861E+02
  19.722  0.1503E+01  0.3862E+02
  19.732  0.1479E+01  0.3863E+02
  19.742  0.1453E+01  0.3865E+02
  19.752  0.1426E+01  0.3866E+02
  19.762  0.1398E+01  0.3868E+02
  19.772  0.1370E+01  0.3869E+02
  19.782  0.1342E+01  0.3870E+02
  19.792  0.1315E+01  0.3872E+02
  19.802  0.1288E+01  0.3873E+02
  19.812  0.1262E+01  0.3874E+02
  19.822  0.1238E+01  0.3876E+02
  19.832  0.1216E+01  0.3877E+02
  19.842  0.1196E+01  0.3878E+02
  19.852  0.1178E+01  0.3879E+02
  19.862  0.1163E+01  0.3880E+02
  19.872  0.1150E+01  0.3881E+02
  19.882  0.1139E+01  0.3883E+02
  19.892  0.1132E+01  0.3884E+02
  19.902  0.1126E+01  0.3885E+02
  19.912  0.1123E+01  0.3886E+02
  19.922  0.1123E+01  0.3887E+02
  19.932  0.1125E+01  0.3888E+02
  19.942  0.1129E+01  0.3889E+02
  19.952  0.1135E+01  0.3891E+02
  19.962  0.1143E+01  0.3892E+02
  19.972  0.1152E+01  0.3893E+02
  19.982  0.1161E+01  0.3894E+02
  19.992  0.1172E+01  0.3895E+02
  20.002  0.1183E+01  0.3896E+02
  20.012  0.1194E+01  0.3898E+02
  20.022  0.1205E+01  0.3899E+02
  20.032  0.1215E+01  0.3900E+02
  20.042  0.1224E+01  0.3901E+02
  20.052  0.1232E+01  0.3902E+02
  20.062  0.1239E+01  0.3904E+02
  20.072  0.1245E+01  0.3905E+02
  20.082  0.1249E+01  0.3906E+02
  20.092  0.1252E+01  0.3907E+02
  20.102  0.1253E+01  0.3909E+02
  20.112  0.1253E+01  0.3910E+02
  20.122  0.1253E+01  0.3911E+02
  20.132  0.1252E+01  0.3912E+02
  20.142  0.1250E+01  0.3914E+02
  20.152  0.1248E+01  0.3915E+02
  20.162  0.1246E+01  0.3916E+02
  20.172  0.1245E+01  0.3917E+02
  20.182  0.1245E+01  0.3919E+02
  20.192  0.1246E+01  0.3920E+02
  20.202  0.1248E+01  0.3921E+02
  20.212  0.1251E+01  0.3922E+02
  20.222  0.1257E+01  0.3924E+02
  20.232  0.1263E+01  0.3925E+02
  20.242  0.1271E+01  0.3926E+02
  20.252  0.1281E+01  0.3927E+02
  20.262  0.1291E+01  0.3929E+02
  20.272  0.1303E+01  0.3930E+02
  20.282  0.1315E+01  0.3931E+02
  20.292  0.1328E+01  0.3933E+02
  20.302  0.1340E+01  0.3934E+02
  20.312  0.1352E+01  0.3935E+02
  20.322  0.1363E+01  0.3937E+02
  20.332  0.1374E+01  0.3938E+02
  20.342  0.1383E+01  0.3939E+02
  20.352  0.1391E+01  0.3941E+02
  20.362  0.1398E+01  0.3942E+02
  20.372  0.1403E+01  0.3944E+02
  20.382  0.1406E+01  0.3945E+02
  20.392  0.1407E+01  0.3947E+02
  20.402  0.1408E+01  0.3948E+02
  20.412  0.1406E+01  0.3949E+02
  20.422  0.1404E+01  0.3951E+02
  20.432  0.1400E+01  0.3952E+02
  20.442  0.1395E+01  0.3954E+02
  20.452  0.1390E+01  0.3955E+02
  20.462  0.1384E+01  0.3956E+02
  20.472  0.1377E+01  0.3958E+02
  20.482  0.1370E+01  0.3959E+02
  20.492  0.1363E+01  0.3960E+02
  20.502  0.1355E+01  0.3962E+02
  20.512  0.1348E+01  0.3963E+02
  20.522  0.1341E+01  0.3964E+02
  20.532  0.1334E+01  0.3966E+02
  20.542  0.1327E+01  0.3967E+02
  20.552  0.1320E+01  0.3968E+02
  20.562  0.1314E+01  0.3970E+02
  20.572  0.1309E+01  0.3971E+02
  20.582  0.1304E+01  0.3972E+02
  20.592  0.1300E+01  0.3974E+02
  20.602  0.1298E+01  0.3975E+02
  20.612  0.1297E+01  0.3976E+02
  20.622  0.1298E+01  0.3978E+02
  20.632  0.1300E+01  0.3979E+02
  20.642  0.1305E+01  0.3980E+02
  20.652  0.1312E+01  0.3981E+02
  20.662  0.1322E+01  0.3983E+02
  20.672  0.1333E+01  0.3984E+02
  20.682  0.1348E+01  0.3985E+02
  20.692  0.1364E+01  0.3987E+02
  20.702  0.1383E+01  0.3988E+02
  20.712  0.1404E+01  0.3990E+02
  20.722  0.1427E+01  0.3991E+02
  20.732  0.1451E+01  0.3992E+02
  20.742  0.1476E+01  0.3994E+02
  20.752  0.1502E+01  0.3995E+02
  20.762  0.1527E+01  0.3997E+02
  20.772  0.1552E+01  0.3999E+02
  20.782  0.1576E+01  0.4000E+02
  20.792  0.1599E+01  0.4002E+02
  20.802  0.1620E+01  0.4003E+02
  20.812  0.1639E+01  0.4005E+02
  20.822  0.1655E+01  0.4007E+02
  20.832  0.1670E+01  0.4008E+02
  20.842  0.1681E+01  0.4010E+02
  20.852  0.1691E+01  0.4012E+02
  20.862  0.1698E+01  0.4013E+02
  20.872  0.1702E+01  0.4015E+02
  20.882  0.1705E+01  0.4017E+02
  20.892  0.1706E+01  0.4018E+02
  20.902  0.1706E+01  0.4020E+02
  20.912  0.1705E+01  0.4022E+02
  20.922  0.1703E+01  0.4024E+02
  20.932  0.1700E+01  0.4025E+02
  20.942  0.1696E+01  0.4027E+02
  20.952  0.1692E+01  0.4029E+02
  20.962  0.1688E+01  0.4030E+02
  20.972  0.1684E+01  0.4032E+02
  20.982  0.1679E+01  0.4034E+02
  20.992  0.1674E+01  0.4035E+02
  21.002  0.1669E+01  0.4037E+02
  21.012  0.1664E+01  0.4039E+02
  21.022  0.1659E+01  0.4040E+02
  21.032  0.1653E+01  0.4042E+02
  21.042  0.1647E+01  0.4044E+02
  21.052  0.1641E+01  0.4045E+02
  21.062  0.1635E+01  0.4047E+02
  21.072  0.1629E+01  0.4049E+02
  21.082  0.1624E+01  0.4050E+02
  21.092  0.1618E+01  0.4052E+02
  21.102  0.1612E+01  0.4053E+02
  21.112  0.1607E+01  0.4055E+02
  21.122  0.1603E+01  0.4057E+02
  21.132  0.1599E+01  0.4058E+02
  21.142  0.1596E+01  0.4060E+02
  21.152  0.1593E+01  0.4061E+02
  21.162  0.1591E+01  0.4063E+02
  21.172  0.1590E+01  0.4065E+02
  21.182  0.1590E+01  0.4066E+02
  21.192  0.1590E+01  0.4068E+02
  21.202  0.1591E+01  0.4069E+02
  21.212  0.1593E+01  0.4071E+02
  21.222  0.1595E+01  0.4073E+02
  21.232  0.1598E+01  0.4074E+02
  21.242  0.1602E+01  0.4076E+02
  21.252  0.1606E+01  0.4077E+02
  21.262  0.1612E+01  0.4079E+02
  21.272  0.1618E+01  0.4081E+02
  21.282  0.1626E+01  0.4082E+02
  21.292  0.1634E+01  0.4084E+02
  21.302  0.1643E+01  0.4086E+02
  21.312  0.1654E+01  0.4087E+02
  21.322  0.1665E+01  0.4089E+02
  21.332  0.1676E+01  0.4091E+02
  21.342  0.1688E+01  0.4092E+02
  21.352  0.1700E+01  0.4094E+02
  21.362  0.1712E+01  0.4096E+02
  21.372  0.1723E+01  0.4097E+02
  21.382  0.1734E+01  0.4099E+02
  21.392  0.1743E+01  0.4101E+02
  21.402  0.1750E+01  0.4103E+02
  21.412  0.1755E+01  0.4104E+02
  21.422  0.1758E+01  0.4106E+02
  21.432  0.1758E+01  0.4108E+02
  21.442  0.1756E+01  0.4110E+02
  21.452  0.1752E+01  0.4111E+02
  21.462  0.1745E+01  0.4113E+02
  21.472  0.1735E+01  0.4115E+02
  21.482  0.1724E+01  0.4117E+02
  21.492  0.1711E+01  0.4118E+02
  21.502  0.1696E+01  0.4120E+02
  21.512  0.1680E+01  0.4122E+02
  21.522  0.1664E+01  0.4123E+02
  21.532  0.1648E+01  0.4125E+02
  21.542  0.1632E+01  0.4127E+02
  21.552  0.1617E+01  0.4128E+02
  21.562  0.1603E+01  0.4130E+02
  21.572  0.1590E+01  0.4131E+02
  21.582  0.1580E+01  0.4133E+02
  21.592  0.1571E+01  0.4135E+02
  21.602  0.1565E+01  0.4136E+02
  21.612  0.1561E+01  0.4138E+02
  21.622  0.1559E+01  0.4139E+02
  21.632  0.1559E+01  0.4141E+02
  21.642  0.1561E+01  0.4142E+02
  21.652  0.1564E+01  0.4144E+02
  21.662  0.1568E+01  0.4146E+02
  21.672  0.1573E+01  0.4147E+02
  21.682  0.1578E+01  0.4149E+02
  21.692  0.1583E+01  0.4150E+02
  21.702  0.1587E+01  0.4152E+02
  21.712  0.1589E+01  0.4153E+02
  21.722  0.1589E+01  0.4155E+02
  21.732  0.1588E+01  0.4157E+02
  21.742  0.1583E+01  0.4158E+02
  21.752  0.1576E+01  0.4160E+02
  21.762  0.1566E+01  0.4161E+02
  21.772  0.1554E+01  0.4163E+02
  21.782  0.1539E+01  0.4164E+02
  21.792  0.1521E+01  0.4166E+02
  21.802  0.1501E+01  0.4167E+02
  21.812  0.1480E+01  0.4169E+02
  21.822  0.1457E+01  0.4170E+02
  21.832  0.1434E+01  0.4172E+02
  21.842  0.1410E+01  0.4173E+02
  21.852  0.1388E+01  0.4175E+02
  21.862  0.1366E+01  0.4176E+02
  21.872  0.1345E+01  0.4177E+02
  21.882  0.1327E+01  0.4179E+02
  21.892  0.1311E+01  0.4180E+02
  21.902  0.1298E+01  0.4181E+02
  21.912  0.1287E+01  0.4183E+02
  21.922  0.1280E+01  0.4184E+02
  21.932  0.1275E+01  0.4185E+02
  21.942  0.1274E+01  0.4186E+02
  21.952  0.1276E+01  0.4188E+02
  21.962  0.1281E+01  0.4189E+02
  21.972  0.1290E+01  0.4190E+02
  21.982  0.1300E+01  0.4192E+02
  21.992  0.1314E+01  0.4193E+02
  22.002  0.1330E+01  0.4194E+02
  22.012  0.1349E+01  0.4196E+02
  22.022  0.1369E+01  0.4197E+02
  22.032  0.1391E+01  0.4198E+02
  22.042  0.1416E+01  0.4200E+02
  22.052  0.1441E+01  0.4201E+02
  22.062  0.1468E+01  0.4203E+02
  22.072  0.1495E+01  0.4204E+02
  22.082  0.1524E+01  0.4206E+02
  22.092  0.1552E+01  0.4207E+02
  22.102  0.1581E+01  0.4209E+02
  22.112  0.1610E+01  0.4210E+02
  22.122  0.1639E+01  0.4212E+02
  22.132  0.1667E+01  0.4214E+02
  22.142  0.1695E+01  0.4215E+02
  22.152  0.1723E+01  0.4217E+02
  22.162  0.1749E+01  0.4219E+02
  22.172  0.1775E+01  0.4221E+02
  22.182  0.1800E+01  0.4222E+02
  22.192  0.1825E+01  0.4224E+02
  22.202  0.1848E+01  0.4226E+02
  22.212  0.1871E+01  0.4228E+02
  22.222  0.1892E+01  0.4230E+02
  22.232  0.1912E+01  0.4232E+02
  22.242  0.1930E+01  0.4234E+02
  22.252  0.1947E+01  0.4236E+02
  22.262  0.1962E+01  0.4238E+02
  22.272  0.1974E+01  0.4240E+02
  22.282  0.1984E+01  0.4242E+02
  22.292  0.1991E+01  0.4244E+02
  22.302  0.1994E+01  0.4246E+02
  22.312  0.1994E+01  0.4248E+02
  22.322  0.1990E+01  0.4250E+02
  22.332  0.1982E+01  0.4252E+02
  22.342  0.1970E+01  0.4253E+02
  22.352  0.1954E+01  0.4255E+02
  22.362  0.1935E+01  0.4257E+02
  22.372  0.1912E+01  0.4259E+02
  22.382  0.1887E+01  0.4261E+02
  22.392  0.1859E+01  0.4263E+02
  22.402  0.1829E+01  0.4265E+02
  22.412  0.1799E+01  0.4267E+02
  22.422  0.1768E+01  0.4268E+02
  22.432  0.1738E+01  0.4270E+02
  22.442  0.1709E+01  0.4272E+02
  22.452  0.1681E+01  0.4274E+02
  22.462  0.1657E+01  0.4275E+02
  22.472  0.1635E+01  0.4277E+02
  22.482  0.1617E+01  0.4278E+02
  22.492  0.1602E+01  0.4280E+02
  22.502  0.1591E+01  0.4282E+02
  22.512  0.1584E+01  0.4283E+02
  22.522  0.1581E+01  0.4285E+02
  22.532  0.1580E+01  0.4286E+02
  22.542  0.1583E+01  0.4288E+02
  22.552  0.1588E+01  0.4290E+02
  22.562  0.1594E+01  0.4291E+02
  22.572  0.1602E+01  0.4293E+02
  22.582  0.1611E+01  0.4294E+02
  22.592  0.1619E+01  0.4296E+02
  22.602  0.1626E+01  0.4298E+02
  22.612  0.1633E+01  0.4299E+02
  22.622  0.1638E+01  0.4301E+02
  22.632  0.1641E+01  0.4303E+02
  22.642  0.1643E+01  0.4304E+02
  22.652  0.1642E+01  0.4306E+02
  22.662  0.1640E+01  0.4307E+02
  22.672  0.1636E+01  0.4309E+02
  22.682  0.1631E+01  0.4311E+02
  22.692  0.1625E+01  0.4312E+02
  22.702  0.1618E+01  0.4314E+02
  22.712  0.1611E+01  0.4316E+02
  22.722  0.1605E+01  0.4317E+02
  22.732  0.1599E+01  0.4319E+02
  22.742  0.1595E+01  0.4320E+02
  22.752  0.1593E+01  0.4322E+02
  22.762  0.1592E+01  0.4324E+02
  22.772  0.1594E+01  0.4325E+02
  22.782  0.1597E+01  0.4327E+02
  22.792  0.1603E+01  0.4328E+02
  22.802  0.1611E+01  0.4330E+02
  22.812  0.1621E+01  0.4332E+02
  22.822  0.1633E+01  0.4333E+02
  22.832  0.1646E+01  0.4335E+02
  22.842  0.1660E+01  0.4337E+02
  22.852  0.1675E+01  0.4338E+02
  22.862  0.1691E+01  0.4340E+02
  22.872  0.1706E+01  0.4342E+02
  22.882  0.1721E+01  0.4343E+02
  22.892  0.1735E+01  0.4345E+02
  22.902  0.1748E+01  0.4347E+02
  22.912  0.1759E+01  0.4349E+02
  22.922  0.1769E+01  0.4350E+02
  22.932  0.1777E+01  0.4352E+02
  22.942  0.1782E+01  0.4354E+02
  22.952  0.1785E+01  0.4356E+02
  22.962  0.1786E+01  0.4357E+02
  22.972  0.1783E+01  0.4359E+02
  22.982  0.1779E+01  0.4361E+02
  22.992  0.1771E+01  0.4363E+02
  23.002  0.1761E+01  0.4365E+02
  23.012  0.1748E+01  0.4366E+02
  23.022  0.1733E+01  0.4368E+02
  23.032  0.1716E+01  0.4370E+02
  23.042  0.1697E+01  0.4371E+02
  23.052  0.1678E+01  0.4373E+02
  23.062  0.1657E+01  0.4375E+02
  23.072  0.1637E+01  0.4376E+02
  23.082  0.1617E+01  0.4378E+02
  23.092  0.1598E+01  0.4380E+02
  23.102  0.1580E+01  0.4381E+02
  23.112  0.1564E+01  0.4383E+02
  23.122  0.1549E+01  0.4384E+02
  23.132  0.1538E+01  0.4386E+02
  23.142  0.1528E+01  0.4387E+02
  23.152  0.1522E+01  0.4389E+02
  23.162  0.1517E+01  0.4390E+02
  23.172  0.1515E+01  0.4392E+02
  23.182  0.1515E+01  0.4393E+02
  23.192  0.1517E+01  0.4395E+02
  23.202  0.1521E+01  0.4396E+02
  23.212  0.1525E+01  0.4398E+02
  23.222  0.1531E+01  0.4400E+02
  23.232  0.1537E+01  0.4401E+02
  23.242  0.1544E+01  0.4403E+02
  23.252  0.1551E+01  0.4404E+02
  23.262  0.1559E+01  0.4406E+02
  23.272  0.1567E+01  0.4407E+02
  23.282  0.1574E+01  0.4409E+02
  23.292  0.1583E+01  0.4410E+02
  23.302  0.1591E+01  0.4412E+02
  23.312  0.1600E+01  0.4414E+02
  23.322  0.1610E+01  0.4415E+02
  23.332  0.1620E+01  0.4417E+02
  23.342  0.1631E+01  0.4419E+02
  23.352  0.1643E+01  0.4420E+02
  23.362  0.1655E+01  0.4422E+02
  23.372  0.1669E+01  0.4423E+02
  23.382  0.1682E+01  0.4425E+02
  23.392  0.1696E+01  0.4427E+02
  23.402  0.1710E+01  0.4429E+02
  23.412  0.1723E+01  0.4430E+02
  23.422  0.1737E+01  0.4432E+02
  23.432  0.1749E+01  0.4434E+02
  23.442  0.1760E+01  0.4436E+02
  23.452  0.1770E+01  0.4437E+02
  23.462  0.1778E+01  0.4439E+02
  23.472  0.1785E+01  0.4441E+02
  23.482  0.1790E+01  0.4443E+02
  23.492  0.1793E+01  0.4444E+02
  23.502  0.1794E+01  0.4446E+02
  23.512  0.1794E+01  0.4448E+02
  23.522  0.1792E+01  0.4450E+02
  23.532  0.1790E+01  0.4452E+02
  23.542  0.1786E+01  0.4453E+02
  23.552  0.1782E+01  0.4455E+02
  23.562  0.1777E+01  0.4457E+02
  23.572  0.1773E+01  0.4459E+02
  23.582  0.1768E+01  0.4461E+02
  23.592  0.1765E+01  0.4462E+02
  23.602  0.1762E+01  0.4464E+02
  23.612  0.1760E+01  0.4466E+02
  23.622  0.1759E+01  0.4468E+02
  23.632  0.1759E+01  0.4469E+02
  23.642  0.1761E+01  0.4471E+02
  23.652  0.1764E+01  0.4473E+02
  23.662  0.1767E+01  0.4475E+02
  23.672  0.1772E+01  0.4476E+02
  23.682  0.1778E+01  0.4478E+02
  23.692  0.1785E+01  0.4480E+02
  23.702  0.1792E+01  0.4482E+02
  23.712  0.1800E+01  0.4484E+02
  23.722  0.1809E+01  0.4485E+02
  23.732  0.1817E+01  0.4487E+02
  23.742  0.1825E+01  0.4489E+02
  23.752  0.1833E+01  0.4491E+02
  23.762  0.1840E+01  0.4493E+02
  23.772  0.1846E+01  0.4495E+02
  23.782  0.1851E+01  0.4496E+02
  23.792  0.1855E+01  0.4498E+02
  23.802  0.1858E+01  0.4500E+02
  23.812  0.1859E+01  0.4502E+02
  23.822  0.1859E+01  0.4504E+02
  23.832  0.1858E+01  0.4506E+02
  23.842  0.1856E+01  0.4508E+02
  23.852  0.1854E+01  0.4509E+02
  23.862  0.1850E+01  0.4511E+02
  23.872  0.1847E+01  0.4513E+02
  23.882  0.1844E+01  0.4515E+02
  23.892  0.1841E+01  0.4517E+02
  23.902  0.1839E+01  0.4519E+02
  23.912  0.1837E+01  0.4520E+02
  23.922  0.1837E+01  0.4522E+02
  23.932  0.1837E+01  0.4524E+02
  23.942  0.1838E+01  0.4526E+02
  23.952  0.1840E+01  0.4528E+02
  23.962  0.1843E+01  0.4530E+02
  23.972  0.1845E+01  0.4531E+02
  23.982  0.1848E+01  0.4533E+02
  23.992  0.1850E+01  0.4535E+02
  24.002  0.1851E+01  0.4537E+02
  24.012  0.1852E+01  0.4539E+02
  24.022  0.1852E+01  0.4541E+02
  24.032  0.1851E+01  0.4543E+02
  24.042  0.1849E+01  0.4544E+02
  24.052  0.1846E+01  0.4546E+02
  24.062  0.1842E+01  0.4548E+02
  24.072  0.1838E+01  0.4550E+02
  24.082  0.1832E+01  0.4552E+02
  24.092  0.1827E+01  0.4554E+02
  24.102  0.1821E+01  0.4555E+02
  24.112  0.1815E+01  0.4557E+02
  24.122  0.1809E+01  0.4559E+02
  24.132  0.1803E+01  0.4561E+02
  24.142  0.1797E+01  0.4563E+02
  24.152  0.1791E+01  0.4564E+02
  24.162  0.1785E+01  0.4566E+02
  24.172  0.1779E+01  0.4568E+02
  24.182  0.1773E+01  0.4570E+02
  24.192  0.1767E+01  0.4572E+02
  24.202  0.1760E+01  0.4573E+02
  24.212  0.1754E+01  0.4575E+02
  24.222  0.1747E+01  0.4577E+02
  24.232  0.1741E+01  0.4579E+02
  24.242  0.1734E+01  0.4580E+02
  24.252  0.1728E+01  0.4582E+02
  24.262  0.1723E+01  0.4584E+02
  24.272  0.1718E+01  0.4585E+02
  24.282  0.1714E+01  0.4587E+02
  24.292  0.1711E+01  0.4589E+02
  24.302  0.1709E+01  0.4591E+02
  24.312  0.1708E+01  0.4592E+02
  24.322  0.1709E+01  0.4594E+02
  24.332  0.1710E+01  0.4596E+02
  24.342  0.1713E+01  0.4597E+02
  24.352  0.1716E+01  0.4599E+02
  24.362  0.1719E+01  0.4601E+02
  24.372  0.1723E+01  0.4603E+02
  24.382  0.1726E+01  0.4604E+02
  24.392  0.1729E+01  0.4606E+02
  24.402  0.1730E+01  0.4608E+02
  24.412  0.1731E+01  0.4609E+02
  24.422  0.1730E+01  0.4611E+02
  24.432  0.1727E+01  0.4613E+02
  24.442  0.1722E+01  0.4615E+02
  24.452  0.1715E+01  0.4616E+02
  24.462  0.1705E+01  0.4618E+02
  24.472  0.1694E+01  0.4620E+02
  24.482  0.1680E+01  0.4621E+02
  24.492  0.1664E+01  0.4623E+02
  24.502  0.1646E+01  0.4625E+02
  24.512  0.1626E+01  0.4626E+02
  24.522  0.1605E+01  0.4628E+02
  24.532  0.1583E+01  0.4630E+02
  24.542  0.1560E+01  0.4631E+02
  24.552  0.1536E+01  0.4633E+02
  24.562  0.1512E+01  0.4634E+02
  24.572  0.1488E+01  0.4636E+02
  24.582  0.1465E+01  0.4637E+02
  24.592  0.1443E+01  0.4639E+02
  24.602  0.1421E+01  0.4640E+02
  24.612  0.1401E+01  0.4641E+02
  24.622  0.1382E+01  0.4643E+02
  24.632  0.1365E+01  0.4644E+02
  24.642  0.1350E+01  0.4646E+02
  24.652  0.1336E+01  0.4647E+02
  24.662  0.1323E+01  0.4648E+02
  24.672  0.1313E+01  0.4649E+02
  24.682  0.1303E+01  0.4651E+02
  24.692  0.1295E+01  0.4652E+02
  24.702  0.1288E+01  0.4653E+02
  24.712  0.1282E+01  0.4655E+02
  24.722  0.1276E+01  0.4656E+02
  24.732  0.1270E+01  0.4657E+02
  24.742  0.1265E+01  0.4658E+02
  24.752  0.1259E+01  0.4660E+02
  24.762  0.1253E+01  0.4661E+02
  24.772  0.1246E+01  0.4662E+02
  24.782  0.1238E+01  0.4663E+02
  24.792  0.1230E+01  0.4665E+02
  24.802  0.1221E+01  0.4666E+02
  24.812  0.1211E+01  0.4667E+02
  24.822  0.1200E+01  0.4668E+02
  24.832  0.1189E+01  0.4670E+02
  24.842  0.1177E+01  0.4671E+02
  24.852  0.1165E+01  0.4672E+02
  24.862  0.1153E+01  0.4673E+02
  24.872  0.1140E+01  0.4674E+02
  24.882  0.1127E+01  0.4675E+02
  24.892  0.1115E+01  0.4676E+02
  24.902  0.1103E+01  0.4677E+02
  24.912  0.1091E+01  0.4679E+02
  24.922  0.1079E+01  0.4680E+02
  24.932  0.1069E+01  0.4681E+02
  24.942  0.1059E+01  0.4682E+02
  24.952  0.1049E+01  0.4683E+02
  24.962  0.1041E+01  0.4684E+02
  24.972  0.1033E+01  0.4685E+02
  24.982  0.1027E+01  0.4686E+02
  24.992  0.1021E+01  0.4687E+02
  25.002  0.1017E+01  0.4688E+02
  25.012  0.1013E+01  0.4689E+02
  25.022  0.1011E+01  0.4690E+02
  25.032  0.1010E+01  0.4691E+02
  25.042  0.1010E+01  0.4692E+02
  25.052  0.1012E+01  0.4693E+02
  25.062  0.1014E+01  0.4694E+02
  25.072  0.1018E+01  0.4695E+02
  25.082  0.1022E+01  0.4696E+02
  25.092  0.1027E+01  0.4697E+02
  25.102  0.1033E+01  0.4698E+02
  25.112  0.1039E+01  0.4699E+02
  25.122  0.1044E+01  0.4700E+02
  25.132  0.1050E+01  0.4701E+02
  25.142  0.1054E+01  0.4702E+02
  25.152  0.1058E+01  0.4703E+02
  25.162  0.1060E+01  0.4704E+02
  25.172  0.1061E+01  0.4706E+02
  25.182  0.1061E+01  0.4707E+02
  25.192  0.1059E+01  0.4708E+02
  25.202  0.1056E+01  0.4709E+02
  25.212  0.1051E+01  0.4710E+02
  25.222  0.1045E+01  0.4711E+02
  25.232  0.1038E+01  0.4712E+02
  25.242  0.1030E+01  0.4713E+02
  25.252  0.1022E+01  0.4714E+02
  25.262  0.1014E+01  0.4715E+02
  25.272  0.1006E+01  0.4716E+02
  25.282  0.9982E+00  0.4717E+02
  25.292  0.9911E+00  0.4718E+02
  25.302  0.9847E+00  0.4719E+02
  25.312  0.9791E+00  0.4720E+02
  25.322  0.9742E+00  0.4721E+02
  25.332  0.9700E+00  0.4722E+02
  25.342  0.9664E+00  0.4723E+02
  25.352  0.9631E+00  0.4724E+02
  25.362  0.9598E+00  0.4725E+02
  25.372  0.9563E+00  0.4726E+02
  25.382  0.9522E+00  0.4727E+02
  25.392  0.9472E+00  0.4728E+02
  25.402  0.9410E+00  0.4728E+02
  25.412  0.9334E+00  0.4729E+02
  25.422  0.9240E+00  0.4730E+02
  25.432  0.9129E+00  0.4731E+02
  25.442  0.8998E+00  0.4732E+02
  25.452  0.8847E+00  0.4733E+02
  25.462  0.8678E+00  0.4734E+02
  25.472  0.8490E+00  0.4735E+02
  25.482  0.8288E+00  0.4736E+02
  25.492  0.8072E+00  0.4736E+02
  25.502  0.7847E+00  0.4737E+02
  25.512  0.7615E+00  0.4738E+02
  25.522  0.7382E+00  0.4739E+02
  25.532  0.7151E+00  0.4739E+02
  25.542  0.6926E+00  0.4740E+02
  25.552  0.6711E+00  0.4741E+02
  25.562  0.6511E+00  0.4741E+02
  25.572  0.6329E+00  0.4742E+02
  25.582  0.6168E+00  0.4743E+02
  25.592  0.6031E+00  0.4743E+02
  25.602  0.5919E+00  0.4744E+02
  25.612  0.5834E+00  0.4744E+02
  25.622  0.5778E+00  0.4745E+02
  25.632  0.5748E+00  0.4746E+02
  25.642  0.5745E+00  0.4746E+02
  25.652  0.5766E+00  0.4747E+02
  25.662  0.5808E+00  0.4747E+02
  25.672  0.5869E+00  0.4748E+02
  25.682  0.5944E+00  0.4748E+02
  25.692  0.6028E+00  0.4749E+02
  25.702  0.6117E+00  0.4750E+02
  25.712  0.6206E+00  0.4750E+02
  25.722  0.6289E+00  0.4751E+02
  25.732  0.6362E+00  0.4752E+02
  25.742  0.6420E+00  0.4752E+02
  25.752  0.6460E+00  0.4753E+02
  25.762  0.6479E+00  0.4754E+02
  25.772  0.6474E+00  0.4754E+02
  25.782  0.6445E+00  0.4755E+02
  25.792  0.6393E+00  0.4755E+02
  25.802  0.6316E+00  0.4756E+02
  25.812  0.6219E+00  0.4757E+02
  25.822  0.6104E+00  0.4757E+02
  25.832  0.5974E+00  0.4758E+02
  25.842  0.5833E+00  0.4759E+02
  25.852  0.5685E+00  0.4759E+02
  25.862  0.5536E+00  0.4760E+02
  25.872  0.5389E+00  0.4760E+02
  25.882  0.5249E+00  0.4761E+02
  25.892  0.5119E+00  0.4761E+02
  25.902  0.5002E+00  0.4762E+02
  25.912  0.4900E+00  0.4762E+02
  25.922  0.4815E+00  0.4763E+02
  25.932  0.4747E+00  0.4763E+02
  25.942  0.4697E+00  0.4764E+02
  25.952  0.4663E+00  0.4764E+02
  25.962  0.4645E+00  0.4765E+02
  25.972  0.4638E+00  0.4765E+02
  25.982  0.4642E+00  0.4765E+02
  25.992  0.4654E+00  0.4766E+02
  26.002  0.4668E+00  0.4766E+02
  26.012  0.4684E+00  0.4767E+02
  26.022  0.4697E+00  0.4767E+02
  26.032  0.4703E+00  0.4768E+02
  26.042  0.4701E+00  0.4768E+02
  26.052  0.4688E+00  0.4769E+02
  26.062  0.4660E+00  0.4769E+02
  26.072  0.4618E+00  0.4770E+02
  26.082  0.4559E+00  0.4770E+02
  26.092  0.4484E+00  0.4771E+02
  26.102  0.4391E+00  0.4771E+02
  26.112  0.4282E+00  0.4771E+02
  26.122  0.4157E+00  0.4772E+02
  26.132  0.4018E+00  0.4772E+02
  26.142  0.3868E+00  0.4773E+02
  26.152  0.3708E+00  0.4773E+02
  26.162  0.3542E+00  0.4773E+02
  26.172  0.3372E+00  0.4774E+02
  26.182  0.3201E+00  0.4774E+02
  26.192  0.3034E+00  0.4774E+02
  26.202  0.2873E+00  0.4775E+02
  26.212  0.2720E+00  0.4775E+02
  26.222  0.2580E+00  0.4775E+02
  26.232  0.2453E+00  0.4775E+02
  26.242  0.2342E+00  0.4776E+02
  26.252  0.2249E+00  0.4776E+02
  26.262  0.2174E+00  0.4776E+02
  26.272  0.2118E+00  0.4776E+02
  26.282  0.2080E+00  0.4777E+02
  26.292  0.2061E+00  0.4777E+02
  26.302  0.2058E+00  0.4777E+02
  26.312  0.2070E+00  0.4777E+02
  26.322  0.2096E+00  0.4777E+02
  26.332  0.2133E+00  0.4778E+02
  26.342  0.2179E+00  0.4778E+02
  26.352  0.2231E+00  0.4778E+02
  26.362  0.2287E+00  0.4778E+02
  26.372  0.2343E+00  0.4778E+02
  26.382  0.2397E+00  0.4779E+02
  26.392  0.2447E+00  0.4779E+02
  26.402  0.2491E+00  0.4779E+02
  26.412  0.2525E+00  0.4779E+02
  26.422  0.2550E+00  0.4780E+02
  26.432  0.2562E+00  0.4780E+02
  26.442  0.2563E+00  0.4780E+02
  26.452  0.2551E+00  0.4780E+02
  26.462  0.2526E+00  0.4781E+02
  26.472  0.2490E+00  0.4781E+02
  26.482  0.2443E+00  0.4781E+02
  26.492  0.2388E+00  0.4781E+02
  26.502  0.2326E+00  0.4782E+02
  26.512  0.2259E+00  0.4782E+02
  26.522  0.2191E+00  0.4782E+02
  26.532  0.2124E+00  0.4782E+02
  26.542  0.2060E+00  0.4783E+02
  26.552  0.2001E+00  0.4783E+02
  26.562  0.1951E+00  0.4783E+02
  26.572  0.1909E+00  0.4783E+02
  26.582  0.1879E+00  0.4783E+02
  26.592  0.1859E+00  0.4783E+02
  26.602  0.1851E+00  0.4784E+02
  26.612  0.1854E+00  0.4784E+02
  26.622  0.1867E+00  0.4784E+02
  26.632  0.1889E+00  0.4784E+02
  26.642  0.1918E+00  0.4784E+02
  26.652  0.1952E+00  0.4785E+02
  26.662  0.1990E+00  0.4785E+02
  26.672  0.2031E+00  0.4785E+02
  26.682  0.2071E+00  0.4785E+02
  26.692  0.2109E+00  0.4785E+02
  26.702  0.2146E+00  0.4786E+02
  26.712  0.2178E+00  0.4786E+02
  26.722  0.2206E+00  0.4786E+02
  26.732  0.2230E+00  0.4786E+02
  26.742  0.2249E+00  0.4787E+02
  26.752  0.2264E+00  0.4787E+02
  26.762  0.2275E+00  0.4787E+02
  26.772  0.2281E+00  0.4787E+02
  26.782  0.2285E+00  0.4787E+02
  26.792  0.2285E+00  0.4788E+02
  26.802  0.2282E+00  0.4788E+02
  26.812  0.2277E+00  0.4788E+02
  26.822  0.2269E+00  0.4788E+02
  26.832  0.2257E+00  0.4789E+02
  26.842  0.2243E+00  0.4789E+02
  26.852  0.2225E+00  0.4789E+02
  26.862  0.2203E+00  0.4789E+02
  26.872  0.2177E+00  0.4789E+02
  26.882  0.2146E+00  0.4790E+02
  26.892  0.2111E+00  0.4790E+02
  26.902  0.2072E+00  0.4790E+02
  26.912  0.2028E+00  0.4790E+02
  26.922  0.1980E+00  0.4791E+02
  26.932  0.1929E+00  0.4791E+02
  26.942  0.1876E+00  0.4791E+02
  26.952  0.1820E+00  0.4791E+02
  26.962  0.1763E+00  0.4791E+02
  26.972  0.1706E+00  0.4791E+02
  26.982  0.1649E+00  0.4792E+02
  26.992  0.1594E+00  0.4792E+02
  27.002  0.1542E+00  0.4792E+02
  27.012  0.1492E+00  0.4792E+02
  27.022  0.1447E+00  0.4792E+02
  27.032  0.1407E+00  0.4792E+02
  27.042  0.1373E+00  0.4792E+02
  27.052  0.1345E+00  0.4793E+02
  27.062  0.1324E+00  0.4793E+02
  27.072  0.1311E+00  0.4793E+02
  27.082  0.1305E+00  0.4793E+02
  27.092  0.1307E+00  0.4793E+02
  27.102  0.1316E+00  0.4793E+02
  27.112  0.1333E+00  0.4793E+02
  27.122  0.1356E+00  0.4794E+02
  27.132  0.1385E+00  0.4794E+02
  27.142  0.1418E+00  0.4794E+02
  27.152  0.1454E+00  0.4794E+02
  27.162  0.1492E+00  0.4794E+02
  27.172  0.1529E+00  0.4794E+02
  27.182  0.1564E+00  0.4794E+02
  27.192  0.1594E+00  0.4795E+02
  27.202  0.1620E+00  0.4795E+02
  27.212  0.1637E+00  0.4795E+02
  27.222  0.1646E+00  0.4795E+02
  27.232  0.1644E+00  0.4795E+02
  27.242  0.1632E+00  0.4795E+02
  27.252  0.1609E+00  0.4796E+02
  27.262  0.1574E+00  0.4796E+02
  27.272  0.1528E+00  0.4796E+02
  27.282  0.1472E+00  0.4796E+02
  27.292  0.1406E+00  0.4796E+02
  27.302  0.1333E+00  0.4796E+02
  27.312  0.1252E+00  0.4796E+02
  27.322  0.1166E+00  0.4797E+02
  27.332  0.1077E+00  0.4797E+02
  27.342  0.9861E-01  0.4797E+02
  27.352  0.8948E-01  0.4797E+02
  27.362  0.8047E-01  0.4797E+02
  27.372  0.7172E-01  0.4797E+02
  27.382  0.6334E-01  0.4797E+02
  27.392  0.5543E-01  0.4797E+02
  27.402  0.4806E-01  0.4797E+02
  27.412  0.4129E-01  0.4797E+02
  27.422  0.3515E-01  0.4797E+02
  27.432  0.2964E-01  0.4797E+02
  27.442  0.2477E-01  0.4797E+02
  27.452  0.2050E-01  0.4797E+02
  27.462  0.1682E-01  0.4797E+02
  27.472  0.1368E-01  0.4797E+02
  27.482  0.1104E-01  0.4797E+02
  27.492  0.8854E-02  0.4797E+02
  27.502  0.7068E-02  0.4797E+02
  27.512  0.5639E-02  0.4797E+02
  27.522  0.4525E-02  0.4797E+02
  27.532  0.3687E-02  0.4797E+02
  27.542  0.3091E-02  0.4797E+02
  27.552  0.2709E-02  0.4797E+02
  27.562  0.2519E-02  0.4797E+02
  27.572  0.2503E-02  0.4797E+02
  27.582  0.2649E-02  0.4797E+02
  27.592  0.2948E-02  0.4797E+02
  27.602  0.3395E-02  0.4797E+02
  27.612  0.3987E-02  0.4797E+02
  27.622  0.4721E-02  0.4797E+02
  27.632  0.5596E-02  0.4797E+02
  27.642  0.6607E-02  0.4797E+02
  27.652  0.7751E-02  0.4797E+02
  27.662  0.9017E-02  0.4797E+02
  27.672  0.1040E-01  0.4797E+02
  27.682  0.1187E-01  0.4797E+02
  27.692  0.1341E-01  0.4797E+02
  27.702  0.1501E-01  0.4797E+02
  27.712  0.1662E-01  0.4797E+02
  27.722  0.1823E-01  0.4798E+02
  27.732  0.1978E-01  0.4798E+02
  27.742  0.2125E-01  0.4798E+02
  27.752  0.2261E-01  0.4798E+02
  27.762  0.2381E-01  0.4798E+02
  27.772  0.2484E-01  0.4798E+02
  27.782  0.2566E-01  0.4798E+02
  27.792  0.2627E-01  0.4798E+02
  27.802  0.2663E-01  0.4798E+02
  27.812  0.2676E-01  0.4798E+02
  27.822  0.2665E-01  0.4798E+02
  27.832  0.2632E-01  0.4798E+02
  27.842  0.2577E-01  0.4798E+02
  27.852  0.2502E-01  0.4798E+02
  27.862  0.2411E-01  0.4798E+02
  27.872  0.2306E-01  0.4798E+02
  27.882  0.2189E-01  0.4798E+02
  27.892  0.2063E-01  0.4798E+02
  27.902  0.1932E-01  0.4798E+02
  27.912  0.1797E-01  0.4798E+02
  27.922  0.1661E-01  0.4798E+02
  27.932  0.1526E-01  0.4798E+02
  27.942  0.1394E-01  0.4798E+02
  27.952  0.1266E-01  0.4798E+02
  27.962  0.1143E-01  0.4798E+02
  27.972  0.1027E-01  0.4798E+02
  27.982  0.9175E-02  0.4798E+02
  27.992  0.8156E-02  0.4798E+02
  28.002  0.7214E-02  0.4798E+02
  28.012  0.6352E-02  0.4798E+02
  28.022  0.5573E-02  0.4798E+02
  28.032  0.4879E-02  0.4798E+02
  28.042  0.4271E-02  0.4798E+02
  28.052  0.3751E-02  0.4798E+02
  28.062  0.3322E-02  0.4798E+02
  28.072  0.2988E-02  0.4798E+02
  28.082  0.2753E-02  0.4798E+02
  28.092  0.2622E-02  0.4798E+02
  28.102  0.2604E-02  0.4798E+02
  28.112  0.2707E-02  0.4798E+02
  28.122  0.2940E-02  0.4798E+02
  28.132  0.3315E-02  0.4798E+02
  28.142  0.3843E-02  0.4798E+02
  28.152  0.4537E-02  0.4798E+02
  28.162  0.5410E-02  0.4798E+02
  28.172  0.6473E-02  0.4798E+02
  28.182  0.7736E-02  0.4798E+02
  28.192  0.9206E-02  0.4798E+02
  28.202  0.1089E-01  0.4798E+02
  28.212  0.1278E-01  0.4798E+02
  28.222  0.1487E-01  0.4798E+02
  28.232  0.1714E-01  0.4798E+02
  28.242  0.1959E-01  0.4798E+02
  28.252  0.2217E-01  0.4798E+02
  28.262  0.2484E-01  0.4798E+02
  28.272  0.2758E-01  0.4798E+02
  28.282  0.3032E-01  0.4798E+02
  28.292  0.3301E-01  0.4798E+02
  28.302  0.3559E-01  0.4798E+02
  28.312  0.3800E-01  0.4798E+02
  28.322  0.4018E-01  0.4798E+02
  28.332  0.4207E-01  0.4799E+02
  28.342  0.4363E-01  0.4799E+02
  28.352  0.4481E-01  0.4799E+02
  28.362  0.4557E-01  0.4799E+02
  28.372  0.4591E-01  0.4799E+02
  28.382  0.4580E-01  0.4799E+02
  28.392  0.4525E-01  0.4799E+02
  28.402  0.4427E-01  0.4799E+02
  28.412  0.4290E-01  0.4799E+02
  28.422  0.4117E-01  0.4799E+02
  28.432  0.3913E-01  0.4799E+02
  28.442  0.3683E-01  0.4799E+02
  28.452  0.3433E-01  0.4799E+02
  28.462  0.3168E-01  0.4799E+02
  28.472  0.2896E-01  0.4799E+02
  28.482  0.2621E-01  0.4799E+02
  28.492  0.2349E-01  0.4799E+02
  28.502  0.2085E-01  0.4799E+02
  28.512  0.1832E-01  0.4799E+02
  28.522  0.1594E-01  0.4799E+02
  28.532  0.1373E-01  0.4799E+02
  28.542  0.1172E-01  0.4799E+02
  28.552  0.9895E-02  0.4799E+02
  28.562  0.8273E-02  0.4799E+02
  28.572  0.6849E-02  0.4799E+02
  28.582  0.5613E-02  0.4799E+02
  28.592  0.4554E-02  0.4799E+02
  28.602  0.3658E-02  0.4799E+02
  28.612  0.2909E-02  0.4799E+02
  28.622  0.2291E-02  0.4799E+02
  28.632  0.1787E-02  0.4799E+02
  28.642  0.1381E-02  0.4799E+02
  28.652  0.1059E-02  0.4799E+02
  28.662  0.8081E-03  0.4799E+02
  28.672  0.6159E-03  0.4799E+02
  28.682  0.4729E-03  0.4799E+02
  28.692  0.3712E-03  0.4799E+02
  28.702  0.3047E-03  0.4799E+02
  28.712  0.2691E-03  0.4799E+02
  28.722  0.2619E-03  0.4799E+02
  28.732  0.2822E-03  0.4799E+02
  28.742  0.3310E-03  0.4799E+02
  28.752  0.4107E-03  0.4799E+02
  28.762  0.5253E-03  0.4799E+02
  28.772  0.6802E-03  0.4799E+02
  28.782  0.8823E-03  0.4799E+02
  28.792  0.1140E-02  0.4799E+02
  28.802  0.1461E-02  0.4799E+02
  28.812  0.1856E-02  0.4799E+02
  28.822  0.2334E-02  0.4799E+02
  28.832  0.2905E-02  0.4799E+02
  28.842  0.3578E-02  0.4799E+02
  28.852  0.4360E-02  0.4799E+02
  28.862  0.5257E-02  0.4799E+02
  28.872  0.6269E-02  0.4799E+02
  28.882  0.7396E-02  0.4799E+02
  28.892  0.8633E-02  0.4799E+02
  28.902  0.9968E-02  0.4799E+02
  28.912  0.1139E-01  0.4799E+02
  28.922  0.1286E-01  0.4799E+02
  28.932  0.1438E-01  0.4799E+02
  28.942  0.1590E-01  0.4799E+02
  28.952  0.1739E-01  0.4799E+02
  28.962  0.1882E-01  0.4799E+02
  28.972  0.2015E-01  0.4799E+02
  28.982  0.2134E-01  0.4799E+02
  28.992  0.2236E-01  0.4799E+02
  29.002  0.2317E-01  0.4800E+02
  29.012  0.2376E-01  0.4800E+02
  29.022  0.2409E-01  0.4800E+02
  29.032  0.2417E-01  0.4800E+02
  29.042  0.2399E-01  0.4800E+02
  29.052  0.2356E-01  0.4800E+02
  29.062  0.2288E-01  0.4800E+02
  29.072  0.2199E-01  0.4800E+02
  29.082  0.2090E-01  0.4800E+02
  29.092  0.1966E-01  0.4800E+02
  29.102  0.1828E-01  0.4800E+02
  29.112  0.1683E-01  0.4800E+02
  29.122  0.1532E-01  0.4800E+02
  29.132  0.1380E-01  0.4800E+02
  29.142  0.1229E-01  0.4800E+02
  29.152  0.1083E-01  0.4800E+02
  29.162  0.9444E-02  0.4800E+02
  29.172  0.8146E-02  0.4800E+02
  29.182  0.6951E-02  0.4800E+02
  29.192  0.5868E-02  0.4800E+02
  29.202  0.4901E-02  0.4800E+02
  29.212  0.4050E-02  0.4800E+02
  29.222  0.3312E-02  0.4800E+02
  29.232  0.2682E-02  0.4800E+02
  29.242  0.2151E-02  0.4800E+02
  29.252  0.1710E-02  0.4800E+02
  29.262  0.1351E-02  0.4800E+02
  29.272  0.1063E-02  0.4800E+02
  29.282  0.8387E-03  0.4800E+02
  29.292  0.6687E-03  0.4800E+02
  29.302  0.5461E-03  0.4800E+02
  29.312  0.4651E-03  0.4800E+02
  29.322  0.4209E-03  0.4800E+02
  29.332  0.4100E-03  0.4800E+02
  29.342  0.4299E-03  0.4800E+02
  29.352  0.4791E-03  0.4800E+02
  29.362  0.5571E-03  0.4800E+02
  29.372  0.6640E-03  0.4800E+02
  29.382  0.8002E-03  0.4800E+02
  29.392  0.9664E-03  0.4800E+02
  29.402  0.1163E-02  0.4800E+02
  29.412  0.1391E-02  0.4800E+02
  29.422  0.1649E-02  0.4800E+02
  29.432  0.1936E-02  0.4800E+02
  29.442  0.2251E-02  0.4800E+02
  29.452  0.2590E-02  0.4800E+02
  29.462  0.2949E-02  0.4800E+02
  29.472  0.3322E-02  0.4800E+02
  29.482  0.3701E-02  0.4800E+02
  29.492  0.4081E-02  0.4800E+02
  29.502  0.4450E-02  0.4800E+02
  29.512  0.4801E-02  0.4800E+02
  29.522  0.5124E-02  0.4800E+02
  29.532  0.5411E-02  0.4800E+02
  29.542  0.5651E-02  0.4800E+02
  29.552  0.5839E-02  0.4800E+02
  29.562  0.5969E-02  0.4800E+02
  29.572  0.6036E-02  0.4800E+02
  29.582  0.6038E-02  0.4800E+02
  29.592  0.5975E-02  0.4800E+02
  29.602  0.5849E-02  0.4800E+02
  29.612  0.5664E-02  0.4800E+02
  29.622  0.5426E-02  0.4800E+02
  29.632  0.5142E-02  0.4800E+02
  29.642  0.4821E-02  0.4800E+02
  29.652  0.4472E-02  0.4800E+02
  29.662  0.4103E-02  0.4800E+02
  29.672  0.3724E-02  0.4800E+02
  29.682  0.3343E-02  0.4800E+02
  29.692  0.2970E-02  0.4800E+02
  29.702  0.2609E-02  0.4800E+02
  29.712  0.2268E-02  0.4800E+02
  29.722  0.1950E-02  0.4800E+02
  29.732  0.1659E-02  0.4800E+02
  29.742  0.1396E-02  0.4800E+02
  29.752  0.1162E-02  0.4800E+02
  29.762  0.9572E-03  0.4800E+02
  29.772  0.7798E-03  0.4800E+02
  29.782  0.6285E-03  0.4800E+02
  29.792  0.5011E-03  0.4800E+02
  29.802  0.3952E-03  0.4800E+02
  29.812  0.3083E-03  0.4800E+02
  29.822  0.2380E-03  0.4800E+02
  29.832  0.1817E-03  0.4800E+02
  29.842  0.1373E-03  0.4800E+02
  29.852  0.1026E-03  0.4800E+02
  29.862  0.7581E-04  0.4800E+02
  29.872  0.5544E-04  0.4800E+02
  29.882  0.4010E-04  0.4800E+02
  29.892  0.2870E-04  0.4800E+02
  29.902  0.2032E-04  0.4800E+02
  29.912  0.1423E-04  0.4800E+02
  29.922  0.9857E-05  0.4800E+02
  29.932  0.6756E-05  0.4800E+02
  29.942  0.4580E-05  0.4800E+02
  29.952  0.3072E-05  0.4800E+02
  29.962  0.2038E-05  0.4800E+02
  29.972  0.1338E-05  0.4800E+02
  29.982  0.8687E-06  0.4800E+02
