#  E (eV)   dos(E)     Int dos(E) EFermi =   10.812 eV
 -11.626  0.1915E-03  0.1915E-05
 -11.616  0.2434E-03  0.4349E-05
 -11.606  0.3085E-03  0.7434E-05
 -11.596  0.3901E-03  0.1134E-04
 -11.586  0.4920E-03  0.1626E-04
 -11.576  0.6189E-03  0.2244E-04
 -11.566  0.7766E-03  0.3021E-04
 -11.556  0.9720E-03  0.3993E-04
 -11.546  0.1213E-02  0.5206E-04
 -11.536  0.1511E-02  0.6717E-04
 -11.526  0.1877E-02  0.8594E-04
 -11.516  0.2325E-02  0.1092E-03
 -11.506  0.2874E-02  0.1379E-03
 -11.496  0.3542E-02  0.1734E-03
 -11.486  0.4356E-02  0.2169E-03
 -11.476  0.5342E-02  0.2703E-03
 -11.466  0.6536E-02  0.3357E-03
 -11.456  0.7977E-02  0.4155E-03
 -11.446  0.9710E-02  0.5126E-03
 -11.436  0.1179E-01  0.6305E-03
 -11.426  0.1428E-01  0.7733E-03
 -11.416  0.1726E-01  0.9459E-03
 -11.406  0.2080E-01  0.1154E-02
 -11.396  0.2500E-01  0.1404E-02
 -11.386  0.2999E-01  0.1704E-02
 -11.376  0.3587E-01  0.2063E-02
 -11.366  0.4281E-01  0.2491E-02
 -11.356  0.5096E-01  0.3000E-02
 -11.346  0.6052E-01  0.3605E-02
 -11.336  0.7169E-01  0.4322E-02
 -11.326  0.8471E-01  0.5169E-02
 -11.316  0.9986E-01  0.6168E-02
 -11.306  0.1174E+00  0.7342E-02
 -11.296  0.1378E+00  0.8720E-02
 -11.286  0.1612E+00  0.1033E-01
 -11.276  0.1882E+00  0.1221E-01
 -11.266  0.2192E+00  0.1441E-01
 -11.256  0.2546E+00  0.1695E-01
 -11.246  0.2951E+00  0.1990E-01
 -11.236  0.3412E+00  0.2331E-01
 -11.226  0.3936E+00  0.2725E-01
 -11.216  0.4529E+00  0.3178E-01
 -11.206  0.5199E+00  0.3698E-01
 -11.196  0.5954E+00  0.4293E-01
 -11.186  0.6803E+00  0.4973E-01
 -11.176  0.7754E+00  0.5749E-01
 -11.166  0.8818E+00  0.6631E-01
 -11.156  0.1000E+01  0.7631E-01
 -11.146  0.1132E+01  0.8764E-01
 -11.136  0.1279E+01  0.1004E+00
 -11.126  0.1441E+01  0.1148E+00
 -11.116  0.1620E+01  0.1310E+00
 -11.106  0.1816E+01  0.1492E+00
 -11.096  0.2032E+01  0.1695E+00
 -11.086  0.2269E+01  0.1922E+00
 -11.076  0.2527E+01  0.2175E+00
 -11.066  0.2808E+01  0.2455E+00
 -11.056  0.3113E+01  0.2767E+00
 -11.046  0.3444E+01  0.3111E+00
 -11.036  0.3802E+01  0.3491E+00
 -11.026  0.4187E+01  0.3910E+00
 -11.016  0.4601E+01  0.4370E+00
 -11.006  0.5045E+01  0.4875E+00
 -10.996  0.5519E+01  0.5427E+00
 -10.986  0.6025E+01  0.6029E+00
 -10.976  0.6563E+01  0.6686E+00
 -10.966  0.7133E+01  0.7399E+00
 -10.956  0.7736E+01  0.8172E+00
 -10.946  0.8371E+01  0.9010E+00
 -10.936  0.9039E+01  0.9913E+00
 -10.926  0.9740E+01  0.1089E+01
 -10.916  0.1047E+02  0.1193E+01
 -10.906  0.1124E+02  0.1306E+01
 -10.896  0.1203E+02  0.1426E+01
 -10.886  0.1285E+02  0.1555E+01
 -10.876  0.1370E+02  0.1692E+01
 -10.866  0.1458E+02  0.1837E+01
 -10.856  0.1547E+02  0.1992E+01
 -10.846  0.1639E+02  0.2156E+01
 -10.836  0.1733E+02  0.2329E+01
 -10.826  0.1829E+02  0.2512E+01
 -10.816  0.1925E+02  0.2705E+01
 -10.806  0.2023E+02  0.2907E+01
 -10.796  0.2121E+02  0.3119E+01
 -10.786  0.2219E+02  0.3341E+01
 -10.776  0.2317E+02  0.3573E+01
 -10.766  0.2415E+02  0.3814E+01
 -10.756  0.2511E+02  0.4065E+01
 -10.746  0.2607E+02  0.4326E+01
 -10.736  0.2700E+02  0.4596E+01
 -10.726  0.2791E+02  0.4875E+01
 -10.716  0.2879E+02  0.5163E+01
 -10.706  0.2964E+02  0.5459E+01
 -10.696  0.3045E+02  0.5764E+01
 -10.686  0.3122E+02  0.6076E+01
 -10.676  0.3195E+02  0.6396E+01
 -10.666  0.3263E+02  0.6722E+01
 -10.656  0.3326E+02  0.7055E+01
 -10.646  0.3383E+02  0.7393E+01
 -10.636  0.3434E+02  0.7736E+01
 -10.626  0.3479E+02  0.8084E+01
 -10.616  0.3518E+02  0.8436E+01
 -10.606  0.3549E+02  0.8791E+01
 -10.596  0.3574E+02  0.9148E+01
 -10.586  0.3592E+02  0.9508E+01
 -10.576  0.3603E+02  0.9868E+01
 -10.566  0.3606E+02  0.1023E+02
 -10.556  0.3603E+02  0.1059E+02
 -10.546  0.3592E+02  0.1095E+02
 -10.536  0.3573E+02  0.1131E+02
 -10.526  0.3548E+02  0.1166E+02
 -10.516  0.3516E+02  0.1201E+02
 -10.506  0.3477E+02  0.1236E+02
 -10.496  0.3431E+02  0.1270E+02
 -10.486  0.3380E+02  0.1304E+02
 -10.476  0.3322E+02  0.1337E+02
 -10.466  0.3258E+02  0.1370E+02
 -10.456  0.3189E+02  0.1402E+02
 -10.446  0.3116E+02  0.1433E+02
 -10.436  0.3037E+02  0.1463E+02
 -10.426  0.2955E+02  0.1493E+02
 -10.416  0.2869E+02  0.1522E+02
 -10.406  0.2779E+02  0.1549E+02
 -10.396  0.2687E+02  0.1576E+02
 -10.386  0.2593E+02  0.1602E+02
 -10.376  0.2496E+02  0.1627E+02
 -10.366  0.2398E+02  0.1651E+02
 -10.356  0.2299E+02  0.1674E+02
 -10.346  0.2200E+02  0.1696E+02
 -10.336  0.2100E+02  0.1717E+02
 -10.326  0.2001E+02  0.1737E+02
 -10.316  0.1903E+02  0.1756E+02
 -10.306  0.1805E+02  0.1774E+02
 -10.296  0.1709E+02  0.1791E+02
 -10.286  0.1614E+02  0.1807E+02
 -10.276  0.1522E+02  0.1823E+02
 -10.266  0.1431E+02  0.1837E+02
 -10.256  0.1343E+02  0.1850E+02
 -10.246  0.1258E+02  0.1863E+02
 -10.236  0.1176E+02  0.1875E+02
 -10.226  0.1096E+02  0.1886E+02
 -10.216  0.1020E+02  0.1896E+02
 -10.206  0.9473E+01  0.1905E+02
 -10.196  0.8776E+01  0.1914E+02
 -10.186  0.8113E+01  0.1922E+02
 -10.176  0.7483E+01  0.1930E+02
 -10.166  0.6887E+01  0.1937E+02
 -10.156  0.6325E+01  0.1943E+02
 -10.146  0.5795E+01  0.1949E+02
 -10.136  0.5299E+01  0.1954E+02
 -10.126  0.4834E+01  0.1959E+02
 -10.116  0.4400E+01  0.1963E+02
 -10.106  0.3996E+01  0.1967E+02
 -10.096  0.3621E+01  0.1971E+02
 -10.086  0.3274E+01  0.1974E+02
 -10.076  0.2953E+01  0.1977E+02
 -10.066  0.2658E+01  0.1980E+02
 -10.056  0.2387E+01  0.1982E+02
 -10.046  0.2139E+01  0.1984E+02
 -10.036  0.1912E+01  0.1986E+02
 -10.026  0.1706E+01  0.1988E+02
 -10.016  0.1518E+01  0.1989E+02
 -10.006  0.1348E+01  0.1991E+02
  -9.996  0.1194E+01  0.1992E+02
  -9.986  0.1055E+01  0.1993E+02
  -9.976  0.9305E+00  0.1994E+02
  -9.966  0.8187E+00  0.1995E+02
  -9.956  0.7187E+00  0.1995E+02
  -9.946  0.6294E+00  0.1996E+02
  -9.936  0.5499E+00  0.1997E+02
  -9.926  0.4794E+00  0.1997E+02
  -9.916  0.4169E+00  0.1998E+02
  -9.906  0.3618E+00  0.1998E+02
  -9.896  0.3132E+00  0.1998E+02
  -9.886  0.2705E+00  0.1998E+02
  -9.876  0.2331E+00  0.1999E+02
  -9.866  0.2003E+00  0.1999E+02
  -9.856  0.1718E+00  0.1999E+02
  -9.846  0.1470E+00  0.1999E+02
  -9.836  0.1255E+00  0.1999E+02
  -9.826  0.1069E+00  0.1999E+02
  -9.816  0.9080E-01  0.2000E+02
  -9.806  0.7696E-01  0.2000E+02
  -9.796  0.6508E-01  0.2000E+02
  -9.786  0.5490E-01  0.2000E+02
  -9.776  0.4620E-01  0.2000E+02
  -9.766  0.3879E-01  0.2000E+02
  -9.756  0.3249E-01  0.2000E+02
  -9.746  0.2715E-01  0.2000E+02
  -9.736  0.2263E-01  0.2000E+02
  -9.726  0.1882E-01  0.2000E+02
  -9.716  0.1561E-01  0.2000E+02
  -9.706  0.1292E-01  0.2000E+02
  -9.696  0.1067E-01  0.2000E+02
  -9.686  0.8787E-02  0.2000E+02
  -9.676  0.7220E-02  0.2000E+02
  -9.666  0.5918E-02  0.2000E+02
  -9.656  0.4840E-02  0.2000E+02
  -9.646  0.3948E-02  0.2000E+02
  -9.636  0.3212E-02  0.2000E+02
  -9.626  0.2608E-02  0.2000E+02
  -9.616  0.2112E-02  0.2000E+02
  -9.606  0.1706E-02  0.2000E+02
  -9.596  0.1375E-02  0.2000E+02
  -9.586  0.1105E-02  0.2000E+02
  -9.576  0.8863E-03  0.2000E+02
  -9.566  0.7090E-03  0.2000E+02
  -9.556  0.5658E-03  0.2000E+02
  -9.546  0.4504E-03  0.2000E+02
  -9.536  0.3577E-03  0.2000E+02
  -9.526  0.2833E-03  0.2000E+02
  -9.516  0.2239E-03  0.2000E+02
  -9.506  0.1765E-03  0.2000E+02
  -9.496  0.1388E-03  0.2000E+02
  -9.486  0.1088E-03  0.2000E+02
  -9.476  0.8516E-04  0.2000E+02
  -9.466  0.6647E-04  0.2000E+02
  -9.456  0.5175E-04  0.2000E+02
  -9.446  0.4019E-04  0.2000E+02
  -9.436  0.3113E-04  0.2000E+02
  -9.426  0.2406E-04  0.2000E+02
  -9.416  0.1854E-04  0.2000E+02
  -9.406  0.1426E-04  0.2000E+02
  -9.396  0.1094E-04  0.2000E+02
  -9.386  0.8366E-05  0.2000E+02
  -9.376  0.6384E-05  0.2000E+02
  -9.366  0.4860E-05  0.2000E+02
  -9.356  0.3690E-05  0.2000E+02
  -9.346  0.2795E-05  0.2000E+02
  -9.336  0.2112E-05  0.2000E+02
  -9.326  0.1591E-05  0.2000E+02
  -9.316  0.1196E-05  0.2000E+02
  -9.306  0.8970E-06  0.2000E+02
  -9.296  0.6708E-06  0.2000E+02
  -9.286  0.5005E-06  0.2000E+02
  -9.276  0.3724E-06  0.2000E+02
  -9.266  0.2764E-06  0.2000E+02
  -9.256  0.2047E-06  0.2000E+02
  -9.246  0.1511E-06  0.2000E+02
  -9.236  0.1113E-06  0.2000E+02
  -9.226  0.8180E-07  0.2000E+02
  -9.216  0.5995E-07  0.2000E+02
  -9.206  0.4382E-07  0.2000E+02
  -9.196  0.3195E-07  0.2000E+02
  -9.186  0.2324E-07  0.2000E+02
  -9.176  0.1686E-07  0.2000E+02
  -9.166  0.1220E-07  0.2000E+02
  -9.156  0.8805E-08  0.2000E+02
  -9.146  0.6338E-08  0.2000E+02
  -9.136  0.4551E-08  0.2000E+02
  -9.126  0.3260E-08  0.2000E+02
  -9.116  0.2329E-08  0.2000E+02
  -9.106  0.1659E-08  0.2000E+02
  -9.096  0.1179E-08  0.2000E+02
  -9.086  0.8359E-09  0.2000E+02
  -9.076  0.5911E-09  0.2000E+02
  -9.066  0.4168E-09  0.2000E+02
  -9.056  0.2932E-09  0.2000E+02
  -9.046  0.2057E-09  0.2000E+02
  -9.036  0.1440E-09  0.2000E+02
  -9.026  0.1005E-09  0.2000E+02
  -9.016  0.6996E-10  0.2000E+02
  -9.006  0.4858E-10  0.2000E+02
  -8.996  0.3365E-10  0.2000E+02
  -8.986  0.2324E-10  0.2000E+02
  -8.976  0.1602E-10  0.2000E+02
  -8.966  0.1101E-10  0.2000E+02
  -8.956  0.7545E-11  0.2000E+02
  -8.946  0.5159E-11  0.2000E+02
  -8.936  0.3518E-11  0.2000E+02
  -8.926  0.2393E-11  0.2000E+02
  -8.916  0.1623E-11  0.2000E+02
  -8.906  0.1098E-11  0.2000E+02
  -8.896  0.7412E-12  0.2000E+02
  -8.886  0.4989E-12  0.2000E+02
  -8.876  0.3349E-12  0.2000E+02
  -8.866  0.2243E-12  0.2000E+02
  -8.856  0.1498E-12  0.2000E+02
  -8.846  0.9978E-13  0.2000E+02
  -8.836  0.6629E-13  0.2000E+02
  -8.826  0.4393E-13  0.2000E+02
  -8.816  0.2903E-13  0.2000E+02
  -8.806  0.1914E-13  0.2000E+02
  -8.796  0.1258E-13  0.2000E+02
  -8.786  0.8252E-14  0.2000E+02
  -8.776  0.5398E-14  0.2000E+02
  -8.766  0.3521E-14  0.2000E+02
  -8.756  0.2291E-14  0.2000E+02
  -8.746  0.1487E-14  0.2000E+02
  -8.736  0.9623E-15  0.2000E+02
  -8.726  0.6212E-15  0.2000E+02
  -8.716  0.4000E-15  0.2000E+02
  -8.706  0.2569E-15  0.2000E+02
  -8.696  0.1645E-15  0.2000E+02
  -8.686  0.1051E-15  0.2000E+02
  -8.676  0.6696E-16  0.2000E+02
  -8.666  0.4255E-16  0.2000E+02
  -8.656  0.2697E-16  0.2000E+02
  -8.646  0.1705E-16  0.2000E+02
  -8.636  0.1075E-16  0.2000E+02
  -8.626  0.6759E-17  0.2000E+02
  -8.616  0.4239E-17  0.2000E+02
  -8.606  0.2652E-17  0.2000E+02
  -8.596  0.1654E-17  0.2000E+02
  -8.586  0.1029E-17  0.2000E+02
  -8.576  0.6388E-18  0.2000E+02
  -8.566  0.3954E-18  0.2000E+02
  -8.556  0.2441E-18  0.2000E+02
  -8.546  0.1503E-18  0.2000E+02
  -8.536  0.9229E-19  0.2000E+02
  -8.526  0.5653E-19  0.2000E+02
  -8.516  0.3453E-19  0.2000E+02
  -8.506  0.2104E-19  0.2000E+02
  -8.496  0.1278E-19  0.2000E+02
  -8.486  0.7747E-20  0.2000E+02
  -8.476  0.4683E-20  0.2000E+02
  -8.466  0.2823E-20  0.2000E+02
  -8.456  0.1697E-20  0.2000E+02
  -8.446  0.1018E-20  0.2000E+02
  -8.436  0.6088E-21  0.2000E+02
  -8.426  0.3631E-21  0.2000E+02
  -8.416  0.2160E-21  0.2000E+02
  -8.406  0.1282E-21  0.2000E+02
  -8.396  0.7586E-22  0.2000E+02
  -8.386  0.4478E-22  0.2000E+02
  -8.376  0.2636E-22  0.2000E+02
  -8.366  0.1547E-22  0.2000E+02
  -8.356  0.9062E-23  0.2000E+02
  -8.346  0.5292E-23  0.2000E+02
  -8.336  0.3082E-23  0.2000E+02
  -8.326  0.1791E-23  0.2000E+02
  -8.316  0.1037E-23  0.2000E+02
  -8.306  0.5995E-24  0.2000E+02
  -8.296  0.3455E-24  0.2000E+02
  -8.286  0.1986E-24  0.2000E+02
  -8.276  0.1139E-24  0.2000E+02
  -8.266  0.6510E-25  0.2000E+02
  -8.256  0.3712E-25  0.2000E+02
  -8.246  0.2111E-25  0.2000E+02
  -8.236  0.1197E-25  0.2000E+02
  -8.226  0.6774E-26  0.2000E+02
  -8.216  0.3822E-26  0.2000E+02
  -8.206  0.2151E-26  0.2000E+02
  -8.196  0.1207E-26  0.2000E+02
  -8.186  0.6757E-27  0.2000E+02
  -8.176  0.3772E-27  0.2000E+02
  -8.166  0.2100E-27  0.2000E+02
  -8.156  0.1166E-27  0.2000E+02
  -8.146  0.6459E-28  0.2000E+02
  -8.136  0.3567E-28  0.2000E+02
  -8.126  0.1965E-28  0.2000E+02
  -8.116  0.1080E-28  0.2000E+02
  -8.106  0.5917E-29  0.2000E+02
  -8.096  0.3234E-29  0.2000E+02
  -8.086  0.1762E-29  0.2000E+02
  -8.076  0.9581E-30  0.2000E+02
  -8.066  0.5194E-30  0.2000E+02
  -8.056  0.2809E-30  0.2000E+02
  -8.046  0.1515E-30  0.2000E+02
  -8.036  0.8147E-31  0.2000E+02
  -8.026  0.4370E-31  0.2000E+02
  -8.016  0.2338E-31  0.2000E+02
  -8.006  0.1247E-31  0.2000E+02
  -7.996  0.6638E-32  0.2000E+02
  -7.986  0.3523E-32  0.2000E+02
  -7.976  0.1865E-32  0.2000E+02
  -7.966  0.9845E-33  0.2000E+02
  -7.956  0.5184E-33  0.2000E+02
  -7.946  0.2722E-33  0.2000E+02
  -7.936  0.1426E-33  0.2000E+02
  -7.926  0.7446E-34  0.2000E+02
  -7.916  0.3879E-34  0.2000E+02
  -7.906  0.2015E-34  0.2000E+02
  -7.896  0.1044E-34  0.2000E+02
  -7.886  0.5396E-35  0.2000E+02
  -7.876  0.2781E-35  0.2000E+02
  -7.866  0.1430E-35  0.2000E+02
  -7.856  0.7329E-36  0.2000E+02
  -7.846  0.3747E-36  0.2000E+02
  -7.836  0.1911E-36  0.2000E+02
  -7.826  0.9718E-37  0.2000E+02
  -7.816  0.4929E-37  0.2000E+02
  -7.806  0.2493E-37  0.2000E+02
  -7.796  0.1258E-37  0.2000E+02
  -7.786  0.6330E-38  0.2000E+02
  -7.776  0.3176E-38  0.2000E+02
  -7.766  0.1590E-38  0.2000E+02
  -7.756  0.7935E-39  0.2000E+02
  -7.746  0.3950E-39  0.2000E+02
  -7.736  0.1961E-39  0.2000E+02
  -7.726  0.9712E-40  0.2000E+02
  -7.716  0.4796E-40  0.2000E+02
  -7.706  0.2362E-40  0.2000E+02
  -7.696  0.1160E-40  0.2000E+02
  -7.686  0.5685E-41  0.2000E+02
  -7.676  0.2778E-41  0.2000E+02
  -7.666  0.1354E-41  0.2000E+02
  -7.656  0.6578E-42  0.2000E+02
  -7.646  0.3188E-42  0.2000E+02
  -7.636  0.1541E-42  0.2000E+02
  -7.626  0.7431E-43  0.2000E+02
  -7.616  0.3573E-43  0.2000E+02
  -7.606  0.1713E-43  0.2000E+02
  -7.596  0.8195E-44  0.2000E+02
  -7.586  0.3909E-44  0.2000E+02
  -7.576  0.1859E-44  0.2000E+02
  -7.566  0.8822E-45  0.2000E+02
  -7.556  0.4174E-45  0.2000E+02
  -7.546  0.1970E-45  0.2000E+02
  -7.536  0.9271E-46  0.2000E+02
  -7.526  0.4352E-46  0.2000E+02
  -7.516  0.2037E-46  0.2000E+02
  -7.506  0.9512E-47  0.2000E+02
  -7.496  0.4429E-47  0.2000E+02
  -7.486  0.2057E-47  0.2000E+02
  -7.476  0.9527E-48  0.2000E+02
  -7.466  0.4400E-48  0.2000E+02
  -7.456  0.2027E-48  0.2000E+02
  -7.446  0.9314E-49  0.2000E+02
  -7.436  0.4268E-49  0.2000E+02
  -7.426  0.1950E-49  0.2000E+02
  -7.416  0.8890E-50  0.2000E+02
  -7.406  0.4041E-50  0.2000E+02
  -7.396  0.1832E-50  0.2000E+02
  -7.386  0.8282E-51  0.2000E+02
  -7.376  0.3735E-51  0.2000E+02
  -7.366  0.1680E-51  0.2000E+02
  -7.356  0.7533E-52  0.2000E+02
  -7.346  0.3370E-52  0.2000E+02
  -7.336  0.1503E-52  0.2000E+02
  -7.326  0.6688E-53  0.2000E+02
  -7.316  0.2968E-53  0.2000E+02
  -7.306  0.1313E-53  0.2000E+02
  -7.296  0.5797E-54  0.2000E+02
  -7.286  0.2552E-54  0.2000E+02
  -7.276  0.1120E-54  0.2000E+02
  -7.266  0.4904E-55  0.2000E+02
  -7.256  0.2142E-55  0.2000E+02
  -7.246  0.9326E-56  0.2000E+02
  -7.236  0.4051E-56  0.2000E+02
  -7.226  0.1755E-56  0.2000E+02
  -7.216  0.7580E-57  0.2000E+02
  -7.206  0.3266E-57  0.2000E+02
  -7.196  0.1403E-57  0.2000E+02
  -7.186  0.6013E-58  0.2000E+02
  -7.176  0.2570E-58  0.2000E+02
  -7.166  0.1095E-58  0.2000E+02
  -7.156  0.4657E-59  0.2000E+02
  -7.146  0.1974E-59  0.2000E+02
  -7.136  0.8348E-60  0.2000E+02
  -7.126  0.3521E-60  0.2000E+02
  -7.116  0.1481E-60  0.2000E+02
  -7.106  0.6210E-61  0.2000E+02
  -7.096  0.2598E-61  0.2000E+02
  -7.086  0.1084E-61  0.2000E+02
  -7.076  0.4510E-62  0.2000E+02
  -7.066  0.1871E-62  0.2000E+02
  -7.056  0.7745E-63  0.2000E+02
  -7.046  0.3197E-63  0.2000E+02
  -7.036  0.1316E-63  0.2000E+02
  -7.026  0.5402E-64  0.2000E+02
  -7.016  0.2212E-64  0.2000E+02
  -7.006  0.9033E-65  0.2000E+02
  -6.996  0.3679E-65  0.2000E+02
  -6.986  0.1494E-65  0.2000E+02
  -6.976  0.6052E-66  0.2000E+02
  -6.966  0.2445E-66  0.2000E+02
  -6.956  0.9851E-67  0.2000E+02
  -6.946  0.3958E-67  0.2000E+02
  -6.936  0.1586E-67  0.2000E+02
  -6.926  0.6340E-68  0.2000E+02
  -6.916  0.2527E-68  0.2000E+02
  -6.906  0.1005E-68  0.2000E+02
  -6.896  0.3983E-69  0.2000E+02
  -6.886  0.1575E-69  0.2000E+02
  -6.876  0.6210E-70  0.2000E+02
  -6.866  0.2442E-70  0.2000E+02
  -6.856  0.9580E-71  0.2000E+02
  -6.846  0.3747E-71  0.2000E+02
  -6.836  0.1462E-71  0.2000E+02
  -6.826  0.5689E-72  0.2000E+02
  -6.816  0.2207E-72  0.2000E+02
  -6.806  0.8543E-73  0.2000E+02
  -6.796  0.3297E-73  0.2000E+02
  -6.786  0.1269E-73  0.2000E+02
  -6.776  0.4872E-74  0.2000E+02
  -6.766  0.1865E-74  0.2000E+02
  -6.756  0.7123E-75  0.2000E+02
  -6.746  0.2713E-75  0.2000E+02
  -6.736  0.1030E-75  0.2000E+02
  -6.726  0.3902E-76  0.2000E+02
  -6.716  0.1474E-76  0.2000E+02
  -6.706  0.5554E-77  0.2000E+02
  -6.696  0.2087E-77  0.2000E+02
  -6.686  0.7820E-78  0.2000E+02
  -6.676  0.2922E-78  0.2000E+02
  -6.666  0.1089E-78  0.2000E+02
  -6.656  0.4049E-79  0.2000E+02
  -6.646  0.1501E-79  0.2000E+02
  -6.636  0.5550E-80  0.2000E+02
  -6.626  0.2047E-80  0.2000E+02
  -6.616  0.7527E-81  0.2000E+02
  -6.606  0.2761E-81  0.2000E+02
  -6.596  0.1011E-81  0.2000E+02
  -6.586  0.3696E-82  0.2000E+02
  -6.576  0.1353E-82  0.2000E+02
  -6.566  0.4995E-83  0.2000E+02
  -6.556  0.1893E-83  0.2000E+02
  -6.546  0.7693E-84  0.2000E+02
  -6.536  0.3635E-84  0.2000E+02
  -6.526  0.2176E-84  0.2000E+02
  -6.516  0.1655E-84  0.2000E+02
  -6.506  0.1470E-84  0.2000E+02
  -6.496  0.1406E-84  0.2000E+02
  -6.486  0.1385E-84  0.2000E+02
  -6.476  0.1379E-84  0.2000E+02
  -6.466  0.1377E-84  0.2000E+02
  -6.456  0.1377E-84  0.2000E+02
  -6.446  0.1377E-84  0.2000E+02
  -6.436  0.1377E-84  0.2000E+02
  -6.426  0.1377E-84  0.2000E+02
  -6.416  0.1377E-84  0.2000E+02
  -6.406  0.1377E-84  0.2000E+02
  -6.396  0.1377E-84  0.2000E+02
  -6.386  0.1377E-84  0.2000E+02
  -6.376  0.1377E-84  0.2000E+02
  -6.366  0.1377E-84  0.2000E+02
  -6.356  0.1377E-84  0.2000E+02
  -6.346  0.1377E-84  0.2000E+02
  -6.336  0.1377E-84  0.2000E+02
  -6.326  0.1377E-84  0.2000E+02
  -6.316  0.1377E-84  0.2000E+02
  -6.306  0.1377E-84  0.2000E+02
  -6.296  0.1377E-84  0.2000E+02
  -6.286  0.1377E-84  0.2000E+02
  -6.276  0.1377E-84  0.2000E+02
  -6.266  0.1377E-84  0.2000E+02
  -6.256  0.1377E-84  0.2000E+02
  -6.246  0.1377E-84  0.2000E+02
  -6.236  0.1377E-84  0.2000E+02
  -6.226  0.1377E-84  0.2000E+02
  -6.216  0.1377E-84  0.2000E+02
  -6.206  0.1377E-84  0.2000E+02
  -6.196  0.1377E-84  0.2000E+02
  -6.186  0.1377E-84  0.2000E+02
  -6.176  0.1377E-84  0.2000E+02
  -6.166  0.1377E-84  0.2000E+02
  -6.156  0.1377E-84  0.2000E+02
  -6.146  0.1377E-84  0.2000E+02
  -6.136  0.1377E-84  0.2000E+02
  -6.126  0.1377E-84  0.2000E+02
  -6.116  0.1377E-84  0.2000E+02
  -6.106  0.1377E-84  0.2000E+02
  -6.096  0.1377E-84  0.2000E+02
  -6.086  0.1377E-84  0.2000E+02
  -6.076  0.1377E-84  0.2000E+02
  -6.066  0.1377E-84  0.2000E+02
  -6.056  0.1377E-84  0.2000E+02
  -6.046  0.1377E-84  0.2000E+02
  -6.036  0.1377E-84  0.2000E+02
  -6.026  0.1377E-84  0.2000E+02
  -6.016  0.1377E-84  0.2000E+02
  -6.006  0.1377E-84  0.2000E+02
  -5.996  0.1377E-84  0.2000E+02
  -5.986  0.1377E-84  0.2000E+02
  -5.976  0.1377E-84  0.2000E+02
  -5.966  0.1377E-84  0.2000E+02
  -5.956  0.1377E-84  0.2000E+02
  -5.946  0.1377E-84  0.2000E+02
  -5.936  0.1377E-84  0.2000E+02
  -5.926  0.1377E-84  0.2000E+02
  -5.916  0.1377E-84  0.2000E+02
  -5.906  0.1377E-84  0.2000E+02
  -5.896  0.1377E-84  0.2000E+02
  -5.886  0.1377E-84  0.2000E+02
  -5.876  0.1377E-84  0.2000E+02
  -5.866  0.1377E-84  0.2000E+02
  -5.856  0.1377E-84  0.2000E+02
  -5.846  0.1377E-84  0.2000E+02
  -5.836  0.1377E-84  0.2000E+02
  -5.826  0.1377E-84  0.2000E+02
  -5.816  0.1377E-84  0.2000E+02
  -5.806  0.1377E-84  0.2000E+02
  -5.796  0.1377E-84  0.2000E+02
  -5.786  0.1377E-84  0.2000E+02
  -5.776  0.1377E-84  0.2000E+02
  -5.766  0.1377E-84  0.2000E+02
  -5.756  0.1377E-84  0.2000E+02
  -5.746  0.1377E-84  0.2000E+02
  -5.736  0.1377E-84  0.2000E+02
  -5.726  0.1377E-84  0.2000E+02
  -5.716  0.1377E-84  0.2000E+02
  -5.706  0.1377E-84  0.2000E+02
  -5.696  0.1377E-84  0.2000E+02
  -5.686  0.1377E-84  0.2000E+02
  -5.676  0.1377E-84  0.2000E+02
  -5.666  0.1377E-84  0.2000E+02
  -5.656  0.1377E-84  0.2000E+02
  -5.646  0.1377E-84  0.2000E+02
  -5.636  0.1377E-84  0.2000E+02
  -5.626  0.1377E-84  0.2000E+02
  -5.616  0.1377E-84  0.2000E+02
  -5.606  0.1377E-84  0.2000E+02
  -5.596  0.1377E-84  0.2000E+02
  -5.586  0.1377E-84  0.2000E+02
  -5.576  0.1377E-84  0.2000E+02
  -5.566  0.1377E-84  0.2000E+02
  -5.556  0.1377E-84  0.2000E+02
  -5.546  0.1377E-84  0.2000E+02
  -5.536  0.1377E-84  0.2000E+02
  -5.526  0.1377E-84  0.2000E+02
  -5.516  0.1377E-84  0.2000E+02
  -5.506  0.1377E-84  0.2000E+02
  -5.496  0.1377E-84  0.2000E+02
  -5.486  0.1377E-84  0.2000E+02
  -5.476  0.1377E-84  0.2000E+02
  -5.466  0.1377E-84  0.2000E+02
  -5.456  0.1377E-84  0.2000E+02
  -5.446  0.1377E-84  0.2000E+02
  -5.436  0.1377E-84  0.2000E+02
  -5.426  0.1377E-84  0.2000E+02
  -5.416  0.1377E-84  0.2000E+02
  -5.406  0.1377E-84  0.2000E+02
  -5.396  0.1377E-84  0.2000E+02
  -5.386  0.1377E-84  0.2000E+02
  -5.376  0.1377E-84  0.2000E+02
  -5.366  0.1377E-84  0.2000E+02
  -5.356  0.1377E-84  0.2000E+02
  -5.346  0.1377E-84  0.2000E+02
  -5.336  0.1377E-84  0.2000E+02
  -5.326  0.1377E-84  0.2000E+02
  -5.316  0.1377E-84  0.2000E+02
  -5.306  0.1377E-84  0.2000E+02
  -5.296  0.1377E-84  0.2000E+02
  -5.286  0.1377E-84  0.2000E+02
  -5.276  0.1377E-84  0.2000E+02
  -5.266  0.1377E-84  0.2000E+02
  -5.256  0.1377E-84  0.2000E+02
  -5.246  0.1377E-84  0.2000E+02
  -5.236  0.1377E-84  0.2000E+02
  -5.226  0.1377E-84  0.2000E+02
  -5.216  0.1377E-84  0.2000E+02
  -5.206  0.1377E-84  0.2000E+02
  -5.196  0.1377E-84  0.2000E+02
  -5.186  0.1377E-84  0.2000E+02
  -5.176  0.1377E-84  0.2000E+02
  -5.166  0.1377E-84  0.2000E+02
  -5.156  0.1377E-84  0.2000E+02
  -5.146  0.1377E-84  0.2000E+02
  -5.136  0.1377E-84  0.2000E+02
  -5.126  0.1377E-84  0.2000E+02
  -5.116  0.1377E-84  0.2000E+02
  -5.106  0.1377E-84  0.2000E+02
  -5.096  0.1377E-84  0.2000E+02
  -5.086  0.1377E-84  0.2000E+02
  -5.076  0.1377E-84  0.2000E+02
  -5.066  0.1377E-84  0.2000E+02
  -5.056  0.1377E-84  0.2000E+02
  -5.046  0.1377E-84  0.2000E+02
  -5.036  0.1377E-84  0.2000E+02
  -5.026  0.1377E-84  0.2000E+02
  -5.016  0.1377E-84  0.2000E+02
  -5.006  0.1377E-84  0.2000E+02
  -4.996  0.1377E-84  0.2000E+02
  -4.986  0.1377E-84  0.2000E+02
  -4.976  0.1377E-84  0.2000E+02
  -4.966  0.1377E-84  0.2000E+02
  -4.956  0.1377E-84  0.2000E+02
  -4.946  0.1377E-84  0.2000E+02
  -4.936  0.1377E-84  0.2000E+02
  -4.926  0.1377E-84  0.2000E+02
  -4.916  0.1377E-84  0.2000E+02
  -4.906  0.1377E-84  0.2000E+02
  -4.896  0.1377E-84  0.2000E+02
  -4.886  0.1377E-84  0.2000E+02
  -4.876  0.1377E-84  0.2000E+02
  -4.866  0.1377E-84  0.2000E+02
  -4.856  0.1377E-84  0.2000E+02
  -4.846  0.1377E-84  0.2000E+02
  -4.836  0.1377E-84  0.2000E+02
  -4.826  0.1377E-84  0.2000E+02
  -4.816  0.1377E-84  0.2000E+02
  -4.806  0.1377E-84  0.2000E+02
  -4.796  0.1377E-84  0.2000E+02
  -4.786  0.1377E-84  0.2000E+02
  -4.776  0.1377E-84  0.2000E+02
  -4.766  0.1377E-84  0.2000E+02
  -4.756  0.1377E-84  0.2000E+02
  -4.746  0.1377E-84  0.2000E+02
  -4.736  0.1377E-84  0.2000E+02
  -4.726  0.1377E-84  0.2000E+02
  -4.716  0.1377E-84  0.2000E+02
  -4.706  0.1377E-84  0.2000E+02
  -4.696  0.1377E-84  0.2000E+02
  -4.686  0.1377E-84  0.2000E+02
  -4.676  0.1377E-84  0.2000E+02
  -4.666  0.1377E-84  0.2000E+02
  -4.656  0.1377E-84  0.2000E+02
  -4.646  0.1377E-84  0.2000E+02
  -4.636  0.1377E-84  0.2000E+02
  -4.626  0.1377E-84  0.2000E+02
  -4.616  0.1377E-84  0.2000E+02
  -4.606  0.1377E-84  0.2000E+02
  -4.596  0.1377E-84  0.2000E+02
  -4.586  0.1377E-84  0.2000E+02
  -4.576  0.1377E-84  0.2000E+02
  -4.566  0.1377E-84  0.2000E+02
  -4.556  0.1377E-84  0.2000E+02
  -4.546  0.1377E-84  0.2000E+02
  -4.536  0.1377E-84  0.2000E+02
  -4.526  0.1377E-84  0.2000E+02
  -4.516  0.1377E-84  0.2000E+02
  -4.506  0.1377E-84  0.2000E+02
  -4.496  0.1377E-84  0.2000E+02
  -4.486  0.1377E-84  0.2000E+02
  -4.476  0.1377E-84  0.2000E+02
  -4.466  0.1377E-84  0.2000E+02
  -4.456  0.1377E-84  0.2000E+02
  -4.446  0.1377E-84  0.2000E+02
  -4.436  0.1377E-84  0.2000E+02
  -4.426  0.1377E-84  0.2000E+02
  -4.416  0.1377E-84  0.2000E+02
  -4.406  0.1377E-84  0.2000E+02
  -4.396  0.1377E-84  0.2000E+02
  -4.386  0.1377E-84  0.2000E+02
  -4.376  0.1377E-84  0.2000E+02
  -4.366  0.1377E-84  0.2000E+02
  -4.356  0.1377E-84  0.2000E+02
  -4.346  0.1377E-84  0.2000E+02
  -4.336  0.1377E-84  0.2000E+02
  -4.326  0.1377E-84  0.2000E+02
  -4.316  0.1377E-84  0.2000E+02
  -4.306  0.1377E-84  0.2000E+02
  -4.296  0.1377E-84  0.2000E+02
  -4.286  0.1377E-84  0.2000E+02
  -4.276  0.1377E-84  0.2000E+02
  -4.266  0.1377E-84  0.2000E+02
  -4.256  0.1377E-84  0.2000E+02
  -4.246  0.1377E-84  0.2000E+02
  -4.236  0.1377E-84  0.2000E+02
  -4.226  0.1377E-84  0.2000E+02
  -4.216  0.1377E-84  0.2000E+02
  -4.206  0.1377E-84  0.2000E+02
  -4.196  0.1377E-84  0.2000E+02
  -4.186  0.1377E-84  0.2000E+02
  -4.176  0.1377E-84  0.2000E+02
  -4.166  0.1378E-84  0.2000E+02
  -4.156  0.1379E-84  0.2000E+02
  -4.146  0.1382E-84  0.2000E+02
  -4.136  0.1390E-84  0.2000E+02
  -4.126  0.1413E-84  0.2000E+02
  -4.116  0.1477E-84  0.2000E+02
  -4.106  0.1654E-84  0.2000E+02
  -4.096  0.2141E-84  0.2000E+02
  -4.086  0.3476E-84  0.2000E+02
  -4.076  0.7130E-84  0.2000E+02
  -4.066  0.1710E-83  0.2000E+02
  -4.056  0.4425E-83  0.2000E+02
  -4.046  0.1179E-82  0.2000E+02
  -4.036  0.3174E-82  0.2000E+02
  -4.026  0.8561E-82  0.2000E+02
  -4.016  0.2306E-81  0.2000E+02
  -4.006  0.6201E-81  0.2000E+02
  -3.996  0.1663E-80  0.2000E+02
  -3.986  0.4449E-80  0.2000E+02
  -3.976  0.1187E-79  0.2000E+02
  -3.966  0.3158E-79  0.2000E+02
  -3.956  0.8380E-79  0.2000E+02
  -3.946  0.2218E-78  0.2000E+02
  -3.936  0.5854E-78  0.2000E+02
  -3.926  0.1541E-77  0.2000E+02
  -3.916  0.4045E-77  0.2000E+02
  -3.906  0.1059E-76  0.2000E+02
  -3.896  0.2765E-76  0.2000E+02
  -3.886  0.7201E-76  0.2000E+02
  -3.876  0.1870E-75  0.2000E+02
  -3.866  0.4844E-75  0.2000E+02
  -3.856  0.1251E-74  0.2000E+02
  -3.846  0.3223E-74  0.2000E+02
  -3.836  0.8281E-74  0.2000E+02
  -3.826  0.2122E-73  0.2000E+02
  -3.816  0.5422E-73  0.2000E+02
  -3.806  0.1382E-72  0.2000E+02
  -3.796  0.3512E-72  0.2000E+02
  -3.786  0.8904E-72  0.2000E+02
  -3.776  0.2251E-71  0.2000E+02
  -3.766  0.5675E-71  0.2000E+02
  -3.756  0.1427E-70  0.2000E+02
  -3.746  0.3578E-70  0.2000E+02
  -3.736  0.8949E-70  0.2000E+02
  -3.726  0.2232E-69  0.2000E+02
  -3.716  0.5553E-69  0.2000E+02
  -3.706  0.1378E-68  0.2000E+02
  -3.696  0.3408E-68  0.2000E+02
  -3.686  0.8410E-68  0.2000E+02
  -3.676  0.2070E-67  0.2000E+02
  -3.666  0.5079E-67  0.2000E+02
  -3.656  0.1243E-66  0.2000E+02
  -3.646  0.3035E-66  0.2000E+02
  -3.636  0.7389E-66  0.2000E+02
  -3.626  0.1794E-65  0.2000E+02
  -3.616  0.4344E-65  0.2000E+02
  -3.606  0.1049E-64  0.2000E+02
  -3.596  0.2527E-64  0.2000E+02
  -3.586  0.6069E-64  0.2000E+02
  -3.576  0.1454E-63  0.2000E+02
  -3.566  0.3474E-63  0.2000E+02
  -3.556  0.8276E-63  0.2000E+02
  -3.546  0.1967E-62  0.2000E+02
  -3.536  0.4661E-62  0.2000E+02
  -3.526  0.1102E-61  0.2000E+02
  -3.516  0.2597E-61  0.2000E+02
  -3.506  0.6105E-61  0.2000E+02
  -3.496  0.1431E-60  0.2000E+02
  -3.486  0.3347E-60  0.2000E+02
  -3.476  0.7804E-60  0.2000E+02
  -3.466  0.1815E-59  0.2000E+02
  -3.456  0.4210E-59  0.2000E+02
  -3.446  0.9739E-59  0.2000E+02
  -3.436  0.2247E-58  0.2000E+02
  -3.426  0.5170E-58  0.2000E+02
  -3.416  0.1186E-57  0.2000E+02
  -3.406  0.2715E-57  0.2000E+02
  -3.396  0.6196E-57  0.2000E+02
  -3.386  0.1410E-56  0.2000E+02
  -3.376  0.3202E-56  0.2000E+02
  -3.366  0.7249E-56  0.2000E+02
  -3.356  0.1637E-55  0.2000E+02
  -3.346  0.3686E-55  0.2000E+02
  -3.336  0.8278E-55  0.2000E+02
  -3.326  0.1854E-54  0.2000E+02
  -3.316  0.4142E-54  0.2000E+02
  -3.306  0.9227E-54  0.2000E+02
  -3.296  0.2050E-53  0.2000E+02
  -3.286  0.4543E-53  0.2000E+02
  -3.276  0.1004E-52  0.2000E+02
  -3.266  0.2213E-52  0.2000E+02
  -3.256  0.4864E-52  0.2000E+02
  -3.246  0.1066E-51  0.2000E+02
  -3.236  0.2331E-51  0.2000E+02
  -3.226  0.5083E-51  0.2000E+02
  -3.216  0.1105E-50  0.2000E+02
  -3.206  0.2397E-50  0.2000E+02
  -3.196  0.5186E-50  0.2000E+02
  -3.186  0.1119E-49  0.2000E+02
  -3.176  0.2407E-49  0.2000E+02
  -3.166  0.5164E-49  0.2000E+02
  -3.156  0.1105E-48  0.2000E+02
  -3.146  0.2358E-48  0.2000E+02
  -3.136  0.5020E-48  0.2000E+02
  -3.126  0.1066E-47  0.2000E+02
  -3.116  0.2256E-47  0.2000E+02
  -3.106  0.4763E-47  0.2000E+02
  -3.096  0.1003E-46  0.2000E+02
  -3.086  0.2106E-46  0.2000E+02
  -3.076  0.4412E-46  0.2000E+02
  -3.066  0.9215E-46  0.2000E+02
  -3.056  0.1920E-45  0.2000E+02
  -3.046  0.3989E-45  0.2000E+02
  -3.036  0.8265E-45  0.2000E+02
  -3.026  0.1708E-44  0.2000E+02
  -3.016  0.3520E-44  0.2000E+02
  -3.006  0.7236E-44  0.2000E+02
  -2.996  0.1484E-43  0.2000E+02
  -2.986  0.3033E-43  0.2000E+02
  -2.976  0.6185E-43  0.2000E+02
  -2.966  0.1258E-42  0.2000E+02
  -2.956  0.2551E-42  0.2000E+02
  -2.946  0.5160E-42  0.2000E+02
  -2.936  0.1041E-41  0.2000E+02
  -2.926  0.2094E-41  0.2000E+02
  -2.916  0.4203E-41  0.2000E+02
  -2.906  0.8411E-41  0.2000E+02
  -2.896  0.1679E-40  0.2000E+02
  -2.886  0.3341E-40  0.2000E+02
  -2.876  0.6634E-40  0.2000E+02
  -2.866  0.1313E-39  0.2000E+02
  -2.856  0.2593E-39  0.2000E+02
  -2.846  0.5108E-39  0.2000E+02
  -2.836  0.1003E-38  0.2000E+02
  -2.826  0.1965E-38  0.2000E+02
  -2.816  0.3839E-38  0.2000E+02
  -2.806  0.7480E-38  0.2000E+02
  -2.796  0.1454E-37  0.2000E+02
  -2.786  0.2817E-37  0.2000E+02
  -2.776  0.5445E-37  0.2000E+02
  -2.766  0.1050E-36  0.2000E+02
  -2.756  0.2018E-36  0.2000E+02
  -2.746  0.3869E-36  0.2000E+02
  -2.736  0.7399E-36  0.2000E+02
  -2.726  0.1411E-35  0.2000E+02
  -2.716  0.2684E-35  0.2000E+02
  -2.706  0.5092E-35  0.2000E+02
  -2.696  0.9634E-35  0.2000E+02
  -2.686  0.1818E-34  0.2000E+02
  -2.676  0.3421E-34  0.2000E+02
  -2.666  0.6421E-34  0.2000E+02
  -2.656  0.1202E-33  0.2000E+02
  -2.646  0.2244E-33  0.2000E+02
  -2.636  0.4178E-33  0.2000E+02
  -2.626  0.7759E-33  0.2000E+02
  -2.616  0.1437E-32  0.2000E+02
  -2.606  0.2654E-32  0.2000E+02
  -2.596  0.4890E-32  0.2000E+02
  -2.586  0.8984E-32  0.2000E+02
  -2.576  0.1646E-31  0.2000E+02
  -2.566  0.3008E-31  0.2000E+02
  -2.556  0.5483E-31  0.2000E+02
  -2.546  0.9968E-31  0.2000E+02
  -2.536  0.1807E-30  0.2000E+02
  -2.526  0.3268E-30  0.2000E+02
  -2.516  0.5893E-30  0.2000E+02
  -2.506  0.1060E-29  0.2000E+02
  -2.496  0.1901E-29  0.2000E+02
  -2.486  0.3401E-29  0.2000E+02
  -2.476  0.6069E-29  0.2000E+02
  -2.466  0.1080E-28  0.2000E+02
  -2.456  0.1917E-28  0.2000E+02
  -2.446  0.3393E-28  0.2000E+02
  -2.436  0.5989E-28  0.2000E+02
  -2.426  0.1055E-27  0.2000E+02
  -2.416  0.1852E-27  0.2000E+02
  -2.406  0.3243E-27  0.2000E+02
  -2.396  0.5665E-27  0.2000E+02
  -2.386  0.9869E-27  0.2000E+02
  -2.376  0.1715E-26  0.2000E+02
  -2.366  0.2972E-26  0.2000E+02
  -2.356  0.5136E-26  0.2000E+02
  -2.346  0.8852E-26  0.2000E+02
  -2.336  0.1522E-25  0.2000E+02
  -2.326  0.2609E-25  0.2000E+02
  -2.316  0.4462E-25  0.2000E+02
  -2.306  0.7610E-25  0.2000E+02
  -2.296  0.1295E-24  0.2000E+02
  -2.286  0.2196E-24  0.2000E+02
  -2.276  0.3716E-24  0.2000E+02
  -2.266  0.6271E-24  0.2000E+02
  -2.256  0.1055E-23  0.2000E+02
  -2.246  0.1772E-23  0.2000E+02
  -2.236  0.2966E-23  0.2000E+02
  -2.226  0.4953E-23  0.2000E+02
  -2.216  0.8248E-23  0.2000E+02
  -2.206  0.1370E-22  0.2000E+02
  -2.196  0.2270E-22  0.2000E+02
  -2.186  0.3750E-22  0.2000E+02
  -2.176  0.6179E-22  0.2000E+02
  -2.166  0.1016E-21  0.2000E+02
  -2.156  0.1665E-21  0.2000E+02
  -2.146  0.2721E-21  0.2000E+02
  -2.136  0.4437E-21  0.2000E+02
  -2.126  0.7216E-21  0.2000E+02
  -2.116  0.1170E-20  0.2000E+02
  -2.106  0.1893E-20  0.2000E+02
  -2.096  0.3055E-20  0.2000E+02
  -2.086  0.4916E-20  0.2000E+02
  -2.076  0.7890E-20  0.2000E+02
  -2.066  0.1263E-19  0.2000E+02
  -2.056  0.2016E-19  0.2000E+02
  -2.046  0.3210E-19  0.2000E+02
  -2.036  0.5099E-19  0.2000E+02
  -2.026  0.8076E-19  0.2000E+02
  -2.016  0.1276E-18  0.2000E+02
  -2.006  0.2010E-18  0.2000E+02
  -1.996  0.3159E-18  0.2000E+02
  -1.986  0.4951E-18  0.2000E+02
  -1.976  0.7740E-18  0.2000E+02
  -1.966  0.1207E-17  0.2000E+02
  -1.956  0.1877E-17  0.2000E+02
  -1.946  0.2911E-17  0.2000E+02
  -1.936  0.4503E-17  0.2000E+02
  -1.926  0.6947E-17  0.2000E+02
  -1.916  0.1069E-16  0.2000E+02
  -1.906  0.1641E-16  0.2000E+02
  -1.896  0.2512E-16  0.2000E+02
  -1.886  0.3835E-16  0.2000E+02
  -1.876  0.5839E-16  0.2000E+02
  -1.866  0.8869E-16  0.2000E+02
  -1.856  0.1343E-15  0.2000E+02
  -1.846  0.2030E-15  0.2000E+02
  -1.836  0.3059E-15  0.2000E+02
  -1.826  0.4597E-15  0.2000E+02
  -1.816  0.6892E-15  0.2000E+02
  -1.806  0.1030E-14  0.2000E+02
  -1.796  0.1537E-14  0.2000E+02
  -1.786  0.2286E-14  0.2000E+02
  -1.776  0.3391E-14  0.2000E+02
  -1.766  0.5017E-14  0.2000E+02
  -1.756  0.7404E-14  0.2000E+02
  -1.746  0.1090E-13  0.2000E+02
  -1.736  0.1600E-13  0.2000E+02
  -1.726  0.2343E-13  0.2000E+02
  -1.716  0.3421E-13  0.2000E+02
  -1.706  0.4984E-13  0.2000E+02
  -1.696  0.7241E-13  0.2000E+02
  -1.686  0.1049E-12  0.2000E+02
  -1.676  0.1517E-12  0.2000E+02
  -1.666  0.2186E-12  0.2000E+02
  -1.656  0.3144E-12  0.2000E+02
  -1.646  0.4508E-12  0.2000E+02
  -1.636  0.6449E-12  0.2000E+02
  -1.626  0.9200E-12  0.2000E+02
  -1.616  0.1309E-11  0.2000E+02
  -1.606  0.1858E-11  0.2000E+02
  -1.596  0.2631E-11  0.2000E+02
  -1.586  0.3714E-11  0.2000E+02
  -1.576  0.5231E-11  0.2000E+02
  -1.566  0.7348E-11  0.2000E+02
  -1.556  0.1030E-10  0.2000E+02
  -1.546  0.1439E-10  0.2000E+02
  -1.536  0.2005E-10  0.2000E+02
  -1.526  0.2788E-10  0.2000E+02
  -1.516  0.3866E-10  0.2000E+02
  -1.506  0.5347E-10  0.2000E+02
  -1.496  0.7377E-10  0.2000E+02
  -1.486  0.1015E-09  0.2000E+02
  -1.476  0.1393E-09  0.2000E+02
  -1.466  0.1907E-09  0.2000E+02
  -1.456  0.2604E-09  0.2000E+02
  -1.446  0.3546E-09  0.2000E+02
  -1.436  0.4817E-09  0.2000E+02
  -1.426  0.6527E-09  0.2000E+02
  -1.416  0.8821E-09  0.2000E+02
  -1.406  0.1189E-08  0.2000E+02
  -1.396  0.1599E-08  0.2000E+02
  -1.386  0.2144E-08  0.2000E+02
  -1.376  0.2868E-08  0.2000E+02
  -1.366  0.3827E-08  0.2000E+02
  -1.356  0.5093E-08  0.2000E+02
  -1.346  0.6760E-08  0.2000E+02
  -1.336  0.8951E-08  0.2000E+02
  -1.326  0.1182E-07  0.2000E+02
  -1.316  0.1557E-07  0.2000E+02
  -1.306  0.2046E-07  0.2000E+02
  -1.296  0.2682E-07  0.2000E+02
  -1.286  0.3506E-07  0.2000E+02
  -1.276  0.4572E-07  0.2000E+02
  -1.266  0.5946E-07  0.2000E+02
  -1.256  0.7715E-07  0.2000E+02
  -1.246  0.9984E-07  0.2000E+02
  -1.236  0.1289E-06  0.2000E+02
  -1.226  0.1659E-06  0.2000E+02
  -1.216  0.2131E-06  0.2000E+02
  -1.206  0.2730E-06  0.2000E+02
  -1.196  0.3489E-06  0.2000E+02
  -1.186  0.4447E-06  0.2000E+02
  -1.176  0.5653E-06  0.2000E+02
  -1.166  0.7170E-06  0.2000E+02
  -1.156  0.9070E-06  0.2000E+02
  -1.146  0.1145E-05  0.2000E+02
  -1.136  0.1441E-05  0.2000E+02
  -1.126  0.1809E-05  0.2000E+02
  -1.116  0.2265E-05  0.2000E+02
  -1.106  0.2830E-05  0.2000E+02
  -1.096  0.3527E-05  0.2000E+02
  -1.086  0.4384E-05  0.2000E+02
  -1.076  0.5436E-05  0.2000E+02
  -1.066  0.6724E-05  0.2000E+02
  -1.056  0.8296E-05  0.2000E+02
  -1.046  0.1021E-04  0.2000E+02
  -1.036  0.1254E-04  0.2000E+02
  -1.026  0.1535E-04  0.2000E+02
  -1.016  0.1876E-04  0.2000E+02
  -1.006  0.2286E-04  0.2000E+02
  -0.996  0.2779E-04  0.2000E+02
  -0.986  0.3370E-04  0.2000E+02
  -0.976  0.4077E-04  0.2000E+02
  -0.966  0.4920E-04  0.2000E+02
  -0.956  0.5922E-04  0.2000E+02
  -0.946  0.7112E-04  0.2000E+02
  -0.936  0.8520E-04  0.2000E+02
  -0.926  0.1018E-03  0.2000E+02
  -0.916  0.1214E-03  0.2000E+02
  -0.906  0.1444E-03  0.2000E+02
  -0.896  0.1713E-03  0.2000E+02
  -0.886  0.2027E-03  0.2000E+02
  -0.876  0.2393E-03  0.2000E+02
  -0.866  0.2819E-03  0.2000E+02
  -0.856  0.3313E-03  0.2000E+02
  -0.846  0.3884E-03  0.2000E+02
  -0.836  0.4542E-03  0.2000E+02
  -0.826  0.5299E-03  0.2000E+02
  -0.816  0.6168E-03  0.2000E+02
  -0.806  0.7162E-03  0.2000E+02
  -0.796  0.8297E-03  0.2000E+02
  -0.786  0.9590E-03  0.2000E+02
  -0.776  0.1106E-02  0.2000E+02
  -0.766  0.1272E-02  0.2000E+02
  -0.756  0.1460E-02  0.2000E+02
  -0.746  0.1672E-02  0.2000E+02
  -0.736  0.1910E-02  0.2000E+02
  -0.726  0.2177E-02  0.2000E+02
  -0.716  0.2476E-02  0.2000E+02
  -0.706  0.2809E-02  0.2000E+02
  -0.696  0.3180E-02  0.2000E+02
  -0.686  0.3592E-02  0.2000E+02
  -0.676  0.4048E-02  0.2000E+02
  -0.666  0.4552E-02  0.2000E+02
  -0.656  0.5107E-02  0.2000E+02
  -0.646  0.5717E-02  0.2000E+02
  -0.636  0.6386E-02  0.2000E+02
  -0.626  0.7118E-02  0.2000E+02
  -0.616  0.7917E-02  0.2000E+02
  -0.606  0.8785E-02  0.2000E+02
  -0.596  0.9729E-02  0.2000E+02
  -0.586  0.1075E-01  0.2000E+02
  -0.576  0.1185E-01  0.2000E+02
  -0.566  0.1304E-01  0.2000E+02
  -0.556  0.1432E-01  0.2000E+02
  -0.546  0.1570E-01  0.2000E+02
  -0.536  0.1716E-01  0.2000E+02
  -0.526  0.1873E-01  0.2000E+02
  -0.516  0.2040E-01  0.2000E+02
  -0.506  0.2218E-01  0.2000E+02
  -0.496  0.2406E-01  0.2000E+02
  -0.486  0.2605E-01  0.2000E+02
  -0.476  0.2815E-01  0.2000E+02
  -0.466  0.3036E-01  0.2000E+02
  -0.456  0.3268E-01  0.2000E+02
  -0.446  0.3512E-01  0.2000E+02
  -0.436  0.3766E-01  0.2000E+02
  -0.426  0.4032E-01  0.2000E+02
  -0.416  0.4309E-01  0.2001E+02
  -0.406  0.4596E-01  0.2001E+02
  -0.396  0.4894E-01  0.2001E+02
  -0.386  0.5203E-01  0.2001E+02
  -0.376  0.5521E-01  0.2001E+02
  -0.366  0.5850E-01  0.2001E+02
  -0.356  0.6188E-01  0.2001E+02
  -0.346  0.6534E-01  0.2001E+02
  -0.336  0.6890E-01  0.2001E+02
  -0.326  0.7253E-01  0.2001E+02
  -0.316  0.7624E-01  0.2001E+02
  -0.306  0.8002E-01  0.2001E+02
  -0.296  0.8386E-01  0.2001E+02
  -0.286  0.8776E-01  0.2001E+02
  -0.276  0.9172E-01  0.2001E+02
  -0.266  0.9572E-01  0.2002E+02
  -0.256  0.9976E-01  0.2002E+02
  -0.246  0.1038E+00  0.2002E+02
  -0.236  0.1079E+00  0.2002E+02
  -0.226  0.1121E+00  0.2002E+02
  -0.216  0.1162E+00  0.2002E+02
  -0.206  0.1204E+00  0.2002E+02
  -0.196  0.1245E+00  0.2002E+02
  -0.186  0.1287E+00  0.2002E+02
  -0.176  0.1328E+00  0.2003E+02
  -0.166  0.1370E+00  0.2003E+02
  -0.156  0.1411E+00  0.2003E+02
  -0.146  0.1452E+00  0.2003E+02
  -0.136  0.1493E+00  0.2003E+02
  -0.126  0.1533E+00  0.2003E+02
  -0.116  0.1573E+00  0.2004E+02
  -0.106  0.1612E+00  0.2004E+02
  -0.096  0.1652E+00  0.2004E+02
  -0.086  0.1690E+00  0.2004E+02
  -0.076  0.1728E+00  0.2004E+02
  -0.066  0.1766E+00  0.2004E+02
  -0.056  0.1803E+00  0.2005E+02
  -0.046  0.1840E+00  0.2005E+02
  -0.036  0.1876E+00  0.2005E+02
  -0.026  0.1911E+00  0.2005E+02
  -0.016  0.1946E+00  0.2005E+02
  -0.006  0.1980E+00  0.2005E+02
   0.004  0.2014E+00  0.2006E+02
   0.014  0.2047E+00  0.2006E+02
   0.024  0.2079E+00  0.2006E+02
   0.034  0.2111E+00  0.2006E+02
   0.044  0.2142E+00  0.2007E+02
   0.054  0.2173E+00  0.2007E+02
   0.064  0.2203E+00  0.2007E+02
   0.074  0.2233E+00  0.2007E+02
   0.084  0.2263E+00  0.2007E+02
   0.094  0.2292E+00  0.2008E+02
   0.104  0.2321E+00  0.2008E+02
   0.114  0.2349E+00  0.2008E+02
   0.124  0.2377E+00  0.2008E+02
   0.134  0.2405E+00  0.2009E+02
   0.144  0.2432E+00  0.2009E+02
   0.154  0.2459E+00  0.2009E+02
   0.164  0.2486E+00  0.2009E+02
   0.174  0.2513E+00  0.2010E+02
   0.184  0.2540E+00  0.2010E+02
   0.194  0.2566E+00  0.2010E+02
   0.204  0.2592E+00  0.2010E+02
   0.214  0.2619E+00  0.2011E+02
   0.224  0.2645E+00  0.2011E+02
   0.234  0.2671E+00  0.2011E+02
   0.244  0.2697E+00  0.2011E+02
   0.254  0.2722E+00  0.2012E+02
   0.264  0.2748E+00  0.2012E+02
   0.274  0.2773E+00  0.2012E+02
   0.284  0.2798E+00  0.2013E+02
   0.294  0.2823E+00  0.2013E+02
   0.304  0.2848E+00  0.2013E+02
   0.314  0.2873E+00  0.2013E+02
   0.324  0.2897E+00  0.2014E+02
   0.334  0.2921E+00  0.2014E+02
   0.344  0.2945E+00  0.2014E+02
   0.354  0.2969E+00  0.2015E+02
   0.364  0.2992E+00  0.2015E+02
   0.374  0.3015E+00  0.2015E+02
   0.384  0.3037E+00  0.2015E+02
   0.394  0.3059E+00  0.2016E+02
   0.404  0.3081E+00  0.2016E+02
   0.414  0.3103E+00  0.2016E+02
   0.424  0.3124E+00  0.2017E+02
   0.434  0.3144E+00  0.2017E+02
   0.444  0.3165E+00  0.2017E+02
   0.454  0.3185E+00  0.2018E+02
   0.464  0.3205E+00  0.2018E+02
   0.474  0.3224E+00  0.2018E+02
   0.484  0.3243E+00  0.2019E+02
   0.494  0.3262E+00  0.2019E+02
   0.504  0.3281E+00  0.2019E+02
   0.514  0.3299E+00  0.2020E+02
   0.524  0.3318E+00  0.2020E+02
   0.534  0.3336E+00  0.2020E+02
   0.544  0.3354E+00  0.2021E+02
   0.554  0.3371E+00  0.2021E+02
   0.564  0.3389E+00  0.2021E+02
   0.574  0.3407E+00  0.2022E+02
   0.584  0.3424E+00  0.2022E+02
   0.594  0.3442E+00  0.2022E+02
   0.604  0.3459E+00  0.2023E+02
   0.614  0.3477E+00  0.2023E+02
   0.624  0.3494E+00  0.2023E+02
   0.634  0.3512E+00  0.2024E+02
   0.644  0.3529E+00  0.2024E+02
   0.654  0.3547E+00  0.2024E+02
   0.664  0.3564E+00  0.2025E+02
   0.674  0.3581E+00  0.2025E+02
   0.684  0.3598E+00  0.2025E+02
   0.694  0.3616E+00  0.2026E+02
   0.704  0.3633E+00  0.2026E+02
   0.714  0.3650E+00  0.2027E+02
   0.724  0.3667E+00  0.2027E+02
   0.734  0.3685E+00  0.2027E+02
   0.744  0.3702E+00  0.2028E+02
   0.754  0.3719E+00  0.2028E+02
   0.764  0.3736E+00  0.2028E+02
   0.774  0.3754E+00  0.2029E+02
   0.784  0.3771E+00  0.2029E+02
   0.794  0.3788E+00  0.2030E+02
   0.804  0.3805E+00  0.2030E+02
   0.814  0.3823E+00  0.2030E+02
   0.824  0.3841E+00  0.2031E+02
   0.834  0.3858E+00  0.2031E+02
   0.844  0.3876E+00  0.2031E+02
   0.854  0.3894E+00  0.2032E+02
   0.864  0.3913E+00  0.2032E+02
   0.874  0.3931E+00  0.2033E+02
   0.884  0.3950E+00  0.2033E+02
   0.894  0.3969E+00  0.2033E+02
   0.904  0.3988E+00  0.2034E+02
   0.914  0.4008E+00  0.2034E+02
   0.924  0.4028E+00  0.2035E+02
   0.934  0.4048E+00  0.2035E+02
   0.944  0.4069E+00  0.2035E+02
   0.954  0.4089E+00  0.2036E+02
   0.964  0.4110E+00  0.2036E+02
   0.974  0.4132E+00  0.2037E+02
   0.984  0.4153E+00  0.2037E+02
   0.994  0.4175E+00  0.2037E+02
   1.004  0.4197E+00  0.2038E+02
   1.014  0.4219E+00  0.2038E+02
   1.024  0.4241E+00  0.2039E+02
   1.034  0.4262E+00  0.2039E+02
   1.044  0.4284E+00  0.2040E+02
   1.054  0.4306E+00  0.2040E+02
   1.064  0.4327E+00  0.2040E+02
   1.074  0.4347E+00  0.2041E+02
   1.084  0.4368E+00  0.2041E+02
   1.094  0.4387E+00  0.2042E+02
   1.104  0.4407E+00  0.2042E+02
   1.114  0.4425E+00  0.2043E+02
   1.124  0.4443E+00  0.2043E+02
   1.134  0.4459E+00  0.2044E+02
   1.144  0.4475E+00  0.2044E+02
   1.154  0.4490E+00  0.2044E+02
   1.164  0.4504E+00  0.2045E+02
   1.174  0.4517E+00  0.2045E+02
   1.184  0.4529E+00  0.2046E+02
   1.194  0.4540E+00  0.2046E+02
   1.204  0.4550E+00  0.2047E+02
   1.214  0.4558E+00  0.2047E+02
   1.224  0.4566E+00  0.2048E+02
   1.234  0.4573E+00  0.2048E+02
   1.244  0.4579E+00  0.2049E+02
   1.254  0.4584E+00  0.2049E+02
   1.264  0.4589E+00  0.2049E+02
   1.274  0.4593E+00  0.2050E+02
   1.284  0.4597E+00  0.2050E+02
   1.294  0.4600E+00  0.2051E+02
   1.304  0.4603E+00  0.2051E+02
   1.314  0.4606E+00  0.2052E+02
   1.324  0.4609E+00  0.2052E+02
   1.334  0.4612E+00  0.2053E+02
   1.344  0.4616E+00  0.2053E+02
   1.354  0.4620E+00  0.2054E+02
   1.364  0.4625E+00  0.2054E+02
   1.374  0.4631E+00  0.2055E+02
   1.384  0.4638E+00  0.2055E+02
   1.394  0.4646E+00  0.2055E+02
   1.404  0.4655E+00  0.2056E+02
   1.414  0.4665E+00  0.2056E+02
   1.424  0.4677E+00  0.2057E+02
   1.434  0.4690E+00  0.2057E+02
   1.444  0.4705E+00  0.2058E+02
   1.454  0.4721E+00  0.2058E+02
   1.464  0.4739E+00  0.2059E+02
   1.474  0.4759E+00  0.2059E+02
   1.484  0.4780E+00  0.2060E+02
   1.494  0.4803E+00  0.2060E+02
   1.504  0.4827E+00  0.2061E+02
   1.514  0.4853E+00  0.2061E+02
   1.524  0.4880E+00  0.2062E+02
   1.534  0.4908E+00  0.2062E+02
   1.544  0.4938E+00  0.2063E+02
   1.554  0.4968E+00  0.2063E+02
   1.564  0.5000E+00  0.2064E+02
   1.574  0.5032E+00  0.2064E+02
   1.584  0.5064E+00  0.2065E+02
   1.594  0.5097E+00  0.2065E+02
   1.604  0.5130E+00  0.2066E+02
   1.614  0.5163E+00  0.2066E+02
   1.624  0.5196E+00  0.2067E+02
   1.634  0.5228E+00  0.2067E+02
   1.644  0.5260E+00  0.2068E+02
   1.654  0.5291E+00  0.2068E+02
   1.664  0.5321E+00  0.2069E+02
   1.674  0.5350E+00  0.2069E+02
   1.684  0.5377E+00  0.2070E+02
   1.694  0.5404E+00  0.2070E+02
   1.704  0.5429E+00  0.2071E+02
   1.714  0.5452E+00  0.2072E+02
   1.724  0.5473E+00  0.2072E+02
   1.734  0.5493E+00  0.2073E+02
   1.744  0.5511E+00  0.2073E+02
   1.754  0.5527E+00  0.2074E+02
   1.764  0.5542E+00  0.2074E+02
   1.774  0.5554E+00  0.2075E+02
   1.784  0.5565E+00  0.2075E+02
   1.794  0.5574E+00  0.2076E+02
   1.804  0.5581E+00  0.2076E+02
   1.814  0.5587E+00  0.2077E+02
   1.824  0.5591E+00  0.2078E+02
   1.834  0.5594E+00  0.2078E+02
   1.844  0.5595E+00  0.2079E+02
   1.854  0.5595E+00  0.2079E+02
   1.864  0.5595E+00  0.2080E+02
   1.874  0.5593E+00  0.2080E+02
   1.884  0.5591E+00  0.2081E+02
   1.894  0.5588E+00  0.2082E+02
   1.904  0.5585E+00  0.2082E+02
   1.914  0.5582E+00  0.2083E+02
   1.924  0.5579E+00  0.2083E+02
   1.934  0.5576E+00  0.2084E+02
   1.944  0.5573E+00  0.2084E+02
   1.954  0.5571E+00  0.2085E+02
   1.964  0.5569E+00  0.2085E+02
   1.974  0.5568E+00  0.2086E+02
   1.984  0.5568E+00  0.2087E+02
   1.994  0.5569E+00  0.2087E+02
   2.004  0.5572E+00  0.2088E+02
   2.014  0.5575E+00  0.2088E+02
   2.024  0.5580E+00  0.2089E+02
   2.034  0.5587E+00  0.2089E+02
   2.044  0.5595E+00  0.2090E+02
   2.054  0.5604E+00  0.2090E+02
   2.064  0.5615E+00  0.2091E+02
   2.074  0.5628E+00  0.2092E+02
   2.084  0.5643E+00  0.2092E+02
   2.094  0.5658E+00  0.2093E+02
   2.104  0.5676E+00  0.2093E+02
   2.114  0.5695E+00  0.2094E+02
   2.124  0.5716E+00  0.2094E+02
   2.134  0.5738E+00  0.2095E+02
   2.144  0.5761E+00  0.2096E+02
   2.154  0.5786E+00  0.2096E+02
   2.164  0.5811E+00  0.2097E+02
   2.174  0.5838E+00  0.2097E+02
   2.184  0.5866E+00  0.2098E+02
   2.194  0.5895E+00  0.2098E+02
   2.204  0.5924E+00  0.2099E+02
   2.214  0.5955E+00  0.2100E+02
   2.224  0.5985E+00  0.2100E+02
   2.234  0.6016E+00  0.2101E+02
   2.244  0.6048E+00  0.2101E+02
   2.254  0.6079E+00  0.2102E+02
   2.264  0.6111E+00  0.2103E+02
   2.274  0.6142E+00  0.2103E+02
   2.284  0.6173E+00  0.2104E+02
   2.294  0.6204E+00  0.2105E+02
   2.304  0.6235E+00  0.2105E+02
   2.314  0.6265E+00  0.2106E+02
   2.324  0.6295E+00  0.2106E+02
   2.334  0.6324E+00  0.2107E+02
   2.344  0.6352E+00  0.2108E+02
   2.354  0.6379E+00  0.2108E+02
   2.364  0.6406E+00  0.2109E+02
   2.374  0.6431E+00  0.2110E+02
   2.384  0.6456E+00  0.2110E+02
   2.394  0.6480E+00  0.2111E+02
   2.404  0.6503E+00  0.2112E+02
   2.414  0.6524E+00  0.2112E+02
   2.424  0.6545E+00  0.2113E+02
   2.434  0.6564E+00  0.2114E+02
   2.444  0.6582E+00  0.2114E+02
   2.454  0.6600E+00  0.2115E+02
   2.464  0.6616E+00  0.2115E+02
   2.474  0.6631E+00  0.2116E+02
   2.484  0.6645E+00  0.2117E+02
   2.494  0.6658E+00  0.2117E+02
   2.504  0.6670E+00  0.2118E+02
   2.514  0.6681E+00  0.2119E+02
   2.524  0.6692E+00  0.2119E+02
   2.534  0.6701E+00  0.2120E+02
   2.544  0.6710E+00  0.2121E+02
   2.554  0.6718E+00  0.2122E+02
   2.564  0.6726E+00  0.2122E+02
   2.574  0.6734E+00  0.2123E+02
   2.584  0.6741E+00  0.2124E+02
   2.594  0.6748E+00  0.2124E+02
   2.604  0.6754E+00  0.2125E+02
   2.614  0.6761E+00  0.2126E+02
   2.624  0.6769E+00  0.2126E+02
   2.634  0.6776E+00  0.2127E+02
   2.644  0.6784E+00  0.2128E+02
   2.654  0.6793E+00  0.2128E+02
   2.664  0.6802E+00  0.2129E+02
   2.674  0.6813E+00  0.2130E+02
   2.684  0.6824E+00  0.2130E+02
   2.694  0.6837E+00  0.2131E+02
   2.704  0.6851E+00  0.2132E+02
   2.714  0.6866E+00  0.2132E+02
   2.724  0.6884E+00  0.2133E+02
   2.734  0.6902E+00  0.2134E+02
   2.744  0.6923E+00  0.2134E+02
   2.754  0.6945E+00  0.2135E+02
   2.764  0.6969E+00  0.2136E+02
   2.774  0.6995E+00  0.2137E+02
   2.784  0.7023E+00  0.2137E+02
   2.794  0.7052E+00  0.2138E+02
   2.804  0.7084E+00  0.2139E+02
   2.814  0.7117E+00  0.2139E+02
   2.824  0.7152E+00  0.2140E+02
   2.834  0.7189E+00  0.2141E+02
   2.844  0.7227E+00  0.2142E+02
   2.854  0.7267E+00  0.2142E+02
   2.864  0.7308E+00  0.2143E+02
   2.874  0.7350E+00  0.2144E+02
   2.884  0.7393E+00  0.2144E+02
   2.894  0.7437E+00  0.2145E+02
   2.904  0.7481E+00  0.2146E+02
   2.914  0.7526E+00  0.2147E+02
   2.924  0.7571E+00  0.2147E+02
   2.934  0.7616E+00  0.2148E+02
   2.944  0.7661E+00  0.2149E+02
   2.954  0.7706E+00  0.2150E+02
   2.964  0.7750E+00  0.2151E+02
   2.974  0.7793E+00  0.2151E+02
   2.984  0.7835E+00  0.2152E+02
   2.994  0.7876E+00  0.2153E+02
   3.004  0.7916E+00  0.2154E+02
   3.014  0.7955E+00  0.2154E+02
   3.024  0.7992E+00  0.2155E+02
   3.034  0.8027E+00  0.2156E+02
   3.044  0.8061E+00  0.2157E+02
   3.054  0.8093E+00  0.2158E+02
   3.064  0.8123E+00  0.2158E+02
   3.074  0.8152E+00  0.2159E+02
   3.084  0.8178E+00  0.2160E+02
   3.094  0.8203E+00  0.2161E+02
   3.104  0.8227E+00  0.2162E+02
   3.114  0.8248E+00  0.2163E+02
   3.124  0.8269E+00  0.2163E+02
   3.134  0.8287E+00  0.2164E+02
   3.144  0.8305E+00  0.2165E+02
   3.154  0.8321E+00  0.2166E+02
   3.164  0.8337E+00  0.2167E+02
   3.174  0.8352E+00  0.2168E+02
   3.184  0.8366E+00  0.2168E+02
   3.194  0.8380E+00  0.2169E+02
   3.204  0.8393E+00  0.2170E+02
   3.214  0.8407E+00  0.2171E+02
   3.224  0.8420E+00  0.2172E+02
   3.234  0.8434E+00  0.2173E+02
   3.244  0.8448E+00  0.2173E+02
   3.254  0.8463E+00  0.2174E+02
   3.264  0.8479E+00  0.2175E+02
   3.274  0.8495E+00  0.2176E+02
   3.284  0.8513E+00  0.2177E+02
   3.294  0.8532E+00  0.2178E+02
   3.304  0.8551E+00  0.2179E+02
   3.314  0.8572E+00  0.2179E+02
   3.324  0.8595E+00  0.2180E+02
   3.334  0.8618E+00  0.2181E+02
   3.344  0.8643E+00  0.2182E+02
   3.354  0.8669E+00  0.2183E+02
   3.364  0.8697E+00  0.2184E+02
   3.374  0.8725E+00  0.2185E+02
   3.384  0.8755E+00  0.2185E+02
   3.394  0.8786E+00  0.2186E+02
   3.404  0.8818E+00  0.2187E+02
   3.414  0.8851E+00  0.2188E+02
   3.424  0.8884E+00  0.2189E+02
   3.434  0.8919E+00  0.2190E+02
   3.444  0.8954E+00  0.2191E+02
   3.454  0.8990E+00  0.2192E+02
   3.464  0.9026E+00  0.2193E+02
   3.474  0.9063E+00  0.2194E+02
   3.484  0.9100E+00  0.2194E+02
   3.494  0.9137E+00  0.2195E+02
   3.504  0.9175E+00  0.2196E+02
   3.514  0.9212E+00  0.2197E+02
   3.524  0.9250E+00  0.2198E+02
   3.534  0.9287E+00  0.2199E+02
   3.544  0.9324E+00  0.2200E+02
   3.554  0.9362E+00  0.2201E+02
   3.564  0.9399E+00  0.2202E+02
   3.574  0.9436E+00  0.2203E+02
   3.584  0.9472E+00  0.2204E+02
   3.594  0.9509E+00  0.2205E+02
   3.604  0.9545E+00  0.2206E+02
   3.614  0.9581E+00  0.2207E+02
   3.624  0.9616E+00  0.2208E+02
   3.634  0.9651E+00  0.2209E+02
   3.644  0.9686E+00  0.2209E+02
   3.654  0.9720E+00  0.2210E+02
   3.664  0.9754E+00  0.2211E+02
   3.674  0.9787E+00  0.2212E+02
   3.684  0.9820E+00  0.2213E+02
   3.694  0.9852E+00  0.2214E+02
   3.704  0.9883E+00  0.2215E+02
   3.714  0.9913E+00  0.2216E+02
   3.724  0.9942E+00  0.2217E+02
   3.734  0.9970E+00  0.2218E+02
   3.744  0.9997E+00  0.2219E+02
   3.754  0.1002E+01  0.2220E+02
   3.764  0.1005E+01  0.2221E+02
   3.774  0.1007E+01  0.2222E+02
   3.784  0.1009E+01  0.2223E+02
   3.794  0.1010E+01  0.2224E+02
   3.804  0.1012E+01  0.2225E+02
   3.814  0.1013E+01  0.2226E+02
   3.824  0.1014E+01  0.2227E+02
   3.834  0.1015E+01  0.2228E+02
   3.844  0.1015E+01  0.2229E+02
   3.854  0.1015E+01  0.2230E+02
   3.864  0.1014E+01  0.2231E+02
   3.874  0.1013E+01  0.2233E+02
   3.884  0.1012E+01  0.2234E+02
   3.894  0.1010E+01  0.2235E+02
   3.904  0.1008E+01  0.2236E+02
   3.914  0.1005E+01  0.2237E+02
   3.924  0.1002E+01  0.2238E+02
   3.934  0.9982E+00  0.2239E+02
   3.944  0.9940E+00  0.2240E+02
   3.954  0.9892E+00  0.2241E+02
   3.964  0.9839E+00  0.2242E+02
   3.974  0.9781E+00  0.2242E+02
   3.984  0.9718E+00  0.2243E+02
   3.994  0.9650E+00  0.2244E+02
   4.004  0.9578E+00  0.2245E+02
   4.014  0.9501E+00  0.2246E+02
   4.024  0.9419E+00  0.2247E+02
   4.034  0.9334E+00  0.2248E+02
   4.044  0.9244E+00  0.2249E+02
   4.054  0.9152E+00  0.2250E+02
   4.064  0.9056E+00  0.2251E+02
   4.074  0.8957E+00  0.2252E+02
   4.084  0.8857E+00  0.2253E+02
   4.094  0.8754E+00  0.2254E+02
   4.104  0.8650E+00  0.2254E+02
   4.114  0.8545E+00  0.2255E+02
   4.124  0.8439E+00  0.2256E+02
   4.134  0.8333E+00  0.2257E+02
   4.144  0.8228E+00  0.2258E+02
   4.154  0.8123E+00  0.2259E+02
   4.164  0.8020E+00  0.2259E+02
   4.174  0.7918E+00  0.2260E+02
   4.184  0.7818E+00  0.2261E+02
   4.194  0.7721E+00  0.2262E+02
   4.204  0.7627E+00  0.2263E+02
   4.214  0.7535E+00  0.2263E+02
   4.224  0.7447E+00  0.2264E+02
   4.234  0.7363E+00  0.2265E+02
   4.244  0.7282E+00  0.2266E+02
   4.254  0.7205E+00  0.2266E+02
   4.264  0.7133E+00  0.2267E+02
   4.274  0.7064E+00  0.2268E+02
   4.284  0.7000E+00  0.2268E+02
   4.294  0.6939E+00  0.2269E+02
   4.304  0.6883E+00  0.2270E+02
   4.314  0.6830E+00  0.2270E+02
   4.324  0.6781E+00  0.2271E+02
   4.334  0.6736E+00  0.2272E+02
   4.344  0.6694E+00  0.2272E+02
   4.354  0.6655E+00  0.2273E+02
   4.364  0.6618E+00  0.2274E+02
   4.374  0.6585E+00  0.2274E+02
   4.384  0.6553E+00  0.2275E+02
   4.394  0.6523E+00  0.2276E+02
   4.404  0.6494E+00  0.2276E+02
   4.414  0.6467E+00  0.2277E+02
   4.424  0.6440E+00  0.2278E+02
   4.434  0.6413E+00  0.2278E+02
   4.444  0.6386E+00  0.2279E+02
   4.454  0.6359E+00  0.2280E+02
   4.464  0.6332E+00  0.2280E+02
   4.474  0.6303E+00  0.2281E+02
   4.484  0.6273E+00  0.2281E+02
   4.494  0.6242E+00  0.2282E+02
   4.504  0.6209E+00  0.2283E+02
   4.514  0.6174E+00  0.2283E+02
   4.524  0.6137E+00  0.2284E+02
   4.534  0.6098E+00  0.2285E+02
   4.544  0.6057E+00  0.2285E+02
   4.554  0.6014E+00  0.2286E+02
   4.564  0.5968E+00  0.2286E+02
   4.574  0.5921E+00  0.2287E+02
   4.584  0.5871E+00  0.2288E+02
   4.594  0.5819E+00  0.2288E+02
   4.604  0.5766E+00  0.2289E+02
   4.614  0.5711E+00  0.2289E+02
   4.624  0.5655E+00  0.2290E+02
   4.634  0.5597E+00  0.2290E+02
   4.644  0.5539E+00  0.2291E+02
   4.654  0.5480E+00  0.2292E+02
   4.664  0.5420E+00  0.2292E+02
   4.674  0.5361E+00  0.2293E+02
   4.684  0.5301E+00  0.2293E+02
   4.694  0.5243E+00  0.2294E+02
   4.704  0.5185E+00  0.2294E+02
   4.714  0.5129E+00  0.2295E+02
   4.724  0.5074E+00  0.2295E+02
   4.734  0.5021E+00  0.2296E+02
   4.744  0.4970E+00  0.2296E+02
   4.754  0.4921E+00  0.2297E+02
   4.764  0.4876E+00  0.2297E+02
   4.774  0.4833E+00  0.2298E+02
   4.784  0.4793E+00  0.2298E+02
   4.794  0.4757E+00  0.2299E+02
   4.804  0.4725E+00  0.2299E+02
   4.814  0.4696E+00  0.2300E+02
   4.824  0.4672E+00  0.2300E+02
   4.834  0.4651E+00  0.2300E+02
   4.844  0.4635E+00  0.2301E+02
   4.854  0.4623E+00  0.2301E+02
   4.864  0.4615E+00  0.2302E+02
   4.874  0.4611E+00  0.2302E+02
   4.884  0.4612E+00  0.2303E+02
   4.894  0.4617E+00  0.2303E+02
   4.904  0.4626E+00  0.2304E+02
   4.914  0.4640E+00  0.2304E+02
   4.924  0.4657E+00  0.2305E+02
   4.934  0.4679E+00  0.2305E+02
   4.944  0.4704E+00  0.2306E+02
   4.954  0.4734E+00  0.2306E+02
   4.964  0.4767E+00  0.2307E+02
   4.974  0.4803E+00  0.2307E+02
   4.984  0.4843E+00  0.2307E+02
   4.994  0.4885E+00  0.2308E+02
   5.004  0.4931E+00  0.2308E+02
   5.014  0.4980E+00  0.2309E+02
   5.024  0.5031E+00  0.2309E+02
   5.034  0.5084E+00  0.2310E+02
   5.044  0.5140E+00  0.2310E+02
   5.054  0.5198E+00  0.2311E+02
   5.064  0.5258E+00  0.2312E+02
   5.074  0.5319E+00  0.2312E+02
   5.084  0.5382E+00  0.2313E+02
   5.094  0.5447E+00  0.2313E+02
   5.104  0.5512E+00  0.2314E+02
   5.114  0.5578E+00  0.2314E+02
   5.124  0.5645E+00  0.2315E+02
   5.134  0.5712E+00  0.2315E+02
   5.144  0.5779E+00  0.2316E+02
   5.154  0.5847E+00  0.2317E+02
   5.164  0.5914E+00  0.2317E+02
   5.174  0.5981E+00  0.2318E+02
   5.184  0.6047E+00  0.2318E+02
   5.194  0.6112E+00  0.2319E+02
   5.204  0.6175E+00  0.2320E+02
   5.214  0.6238E+00  0.2320E+02
   5.224  0.6298E+00  0.2321E+02
   5.234  0.6356E+00  0.2321E+02
   5.244  0.6412E+00  0.2322E+02
   5.254  0.6466E+00  0.2323E+02
   5.264  0.6516E+00  0.2323E+02
   5.274  0.6564E+00  0.2324E+02
   5.284  0.6607E+00  0.2325E+02
   5.294  0.6648E+00  0.2325E+02
   5.304  0.6684E+00  0.2326E+02
   5.314  0.6716E+00  0.2327E+02
   5.324  0.6743E+00  0.2327E+02
   5.334  0.6766E+00  0.2328E+02
   5.344  0.6784E+00  0.2329E+02
   5.354  0.6796E+00  0.2329E+02
   5.364  0.6804E+00  0.2330E+02
   5.374  0.6806E+00  0.2331E+02
   5.384  0.6802E+00  0.2331E+02
   5.394  0.6793E+00  0.2332E+02
   5.404  0.6779E+00  0.2333E+02
   5.414  0.6759E+00  0.2334E+02
   5.424  0.6733E+00  0.2334E+02
   5.434  0.6701E+00  0.2335E+02
   5.444  0.6664E+00  0.2336E+02
   5.454  0.6621E+00  0.2336E+02
   5.464  0.6574E+00  0.2337E+02
   5.474  0.6521E+00  0.2337E+02
   5.484  0.6463E+00  0.2338E+02
   5.494  0.6401E+00  0.2339E+02
   5.504  0.6334E+00  0.2339E+02
   5.514  0.6263E+00  0.2340E+02
   5.524  0.6188E+00  0.2341E+02
   5.534  0.6111E+00  0.2341E+02
   5.544  0.6030E+00  0.2342E+02
   5.554  0.5946E+00  0.2342E+02
   5.564  0.5860E+00  0.2343E+02
   5.574  0.5773E+00  0.2344E+02
   5.584  0.5684E+00  0.2344E+02
   5.594  0.5594E+00  0.2345E+02
   5.604  0.5504E+00  0.2345E+02
   5.614  0.5413E+00  0.2346E+02
   5.624  0.5324E+00  0.2346E+02
   5.634  0.5235E+00  0.2347E+02
   5.644  0.5147E+00  0.2347E+02
   5.654  0.5061E+00  0.2348E+02
   5.664  0.4977E+00  0.2348E+02
   5.674  0.4896E+00  0.2349E+02
   5.684  0.4818E+00  0.2349E+02
   5.694  0.4743E+00  0.2350E+02
   5.704  0.4672E+00  0.2350E+02
   5.714  0.4605E+00  0.2351E+02
   5.724  0.4541E+00  0.2351E+02
   5.734  0.4483E+00  0.2352E+02
   5.744  0.4429E+00  0.2352E+02
   5.754  0.4380E+00  0.2353E+02
   5.764  0.4336E+00  0.2353E+02
   5.774  0.4297E+00  0.2353E+02
   5.784  0.4263E+00  0.2354E+02
   5.794  0.4234E+00  0.2354E+02
   5.804  0.4211E+00  0.2355E+02
   5.814  0.4193E+00  0.2355E+02
   5.824  0.4180E+00  0.2356E+02
   5.834  0.4172E+00  0.2356E+02
   5.844  0.4168E+00  0.2356E+02
   5.854  0.4170E+00  0.2357E+02
   5.864  0.4175E+00  0.2357E+02
   5.874  0.4185E+00  0.2358E+02
   5.884  0.4199E+00  0.2358E+02
   5.894  0.4217E+00  0.2358E+02
   5.904  0.4237E+00  0.2359E+02
   5.914  0.4261E+00  0.2359E+02
   5.924  0.4287E+00  0.2360E+02
   5.934  0.4315E+00  0.2360E+02
   5.944  0.4344E+00  0.2361E+02
   5.954  0.4375E+00  0.2361E+02
   5.964  0.4407E+00  0.2362E+02
   5.974  0.4440E+00  0.2362E+02
   5.984  0.4472E+00  0.2362E+02
   5.994  0.4505E+00  0.2363E+02
   6.004  0.4536E+00  0.2363E+02
   6.014  0.4567E+00  0.2364E+02
   6.024  0.4596E+00  0.2364E+02
   6.034  0.4623E+00  0.2365E+02
   6.044  0.4648E+00  0.2365E+02
   6.054  0.4671E+00  0.2366E+02
   6.064  0.4692E+00  0.2366E+02
   6.074  0.4710E+00  0.2367E+02
   6.084  0.4725E+00  0.2367E+02
   6.094  0.4736E+00  0.2367E+02
   6.104  0.4745E+00  0.2368E+02
   6.114  0.4750E+00  0.2368E+02
   6.124  0.4752E+00  0.2369E+02
   6.134  0.4750E+00  0.2369E+02
   6.144  0.4745E+00  0.2370E+02
   6.154  0.4737E+00  0.2370E+02
   6.164  0.4726E+00  0.2371E+02
   6.174  0.4711E+00  0.2371E+02
   6.184  0.4694E+00  0.2372E+02
   6.194  0.4673E+00  0.2372E+02
   6.204  0.4650E+00  0.2373E+02
   6.214  0.4625E+00  0.2373E+02
   6.224  0.4597E+00  0.2374E+02
   6.234  0.4567E+00  0.2374E+02
   6.244  0.4535E+00  0.2375E+02
   6.254  0.4502E+00  0.2375E+02
   6.264  0.4467E+00  0.2375E+02
   6.274  0.4431E+00  0.2376E+02
   6.284  0.4395E+00  0.2376E+02
   6.294  0.4358E+00  0.2377E+02
   6.304  0.4320E+00  0.2377E+02
   6.314  0.4283E+00  0.2378E+02
   6.324  0.4246E+00  0.2378E+02
   6.334  0.4209E+00  0.2378E+02
   6.344  0.4173E+00  0.2379E+02
   6.354  0.4139E+00  0.2379E+02
   6.364  0.4105E+00  0.2380E+02
   6.374  0.4073E+00  0.2380E+02
   6.384  0.4043E+00  0.2380E+02
   6.394  0.4015E+00  0.2381E+02
   6.404  0.3989E+00  0.2381E+02
   6.414  0.3966E+00  0.2382E+02
   6.424  0.3946E+00  0.2382E+02
   6.434  0.3928E+00  0.2382E+02
   6.444  0.3913E+00  0.2383E+02
   6.454  0.3902E+00  0.2383E+02
   6.464  0.3894E+00  0.2384E+02
   6.474  0.3890E+00  0.2384E+02
   6.484  0.3889E+00  0.2384E+02
   6.494  0.3892E+00  0.2385E+02
   6.504  0.3900E+00  0.2385E+02
   6.514  0.3911E+00  0.2386E+02
   6.524  0.3926E+00  0.2386E+02
   6.534  0.3945E+00  0.2386E+02
   6.544  0.3969E+00  0.2387E+02
   6.554  0.3996E+00  0.2387E+02
   6.564  0.4028E+00  0.2388E+02
   6.574  0.4064E+00  0.2388E+02
   6.584  0.4105E+00  0.2388E+02
   6.594  0.4149E+00  0.2389E+02
   6.604  0.4197E+00  0.2389E+02
   6.614  0.4249E+00  0.2390E+02
   6.624  0.4306E+00  0.2390E+02
   6.634  0.4365E+00  0.2391E+02
   6.644  0.4429E+00  0.2391E+02
   6.654  0.4496E+00  0.2391E+02
   6.664  0.4566E+00  0.2392E+02
   6.674  0.4639E+00  0.2392E+02
   6.684  0.4715E+00  0.2393E+02
   6.694  0.4794E+00  0.2393E+02
   6.704  0.4875E+00  0.2394E+02
   6.714  0.4959E+00  0.2394E+02
   6.724  0.5045E+00  0.2395E+02
   6.734  0.5132E+00  0.2395E+02
   6.744  0.5221E+00  0.2396E+02
   6.754  0.5312E+00  0.2396E+02
   6.764  0.5403E+00  0.2397E+02
   6.774  0.5496E+00  0.2397E+02
   6.784  0.5588E+00  0.2398E+02
   6.794  0.5682E+00  0.2399E+02
   6.804  0.5775E+00  0.2399E+02
   6.814  0.5867E+00  0.2400E+02
   6.824  0.5960E+00  0.2400E+02
   6.834  0.6051E+00  0.2401E+02
   6.844  0.6142E+00  0.2402E+02
   6.854  0.6231E+00  0.2402E+02
   6.864  0.6318E+00  0.2403E+02
   6.874  0.6403E+00  0.2403E+02
   6.884  0.6487E+00  0.2404E+02
   6.894  0.6568E+00  0.2405E+02
   6.904  0.6647E+00  0.2405E+02
   6.914  0.6722E+00  0.2406E+02
   6.924  0.6795E+00  0.2407E+02
   6.934  0.6865E+00  0.2407E+02
   6.944  0.6932E+00  0.2408E+02
   6.954  0.6996E+00  0.2409E+02
   6.964  0.7056E+00  0.2410E+02
   6.974  0.7113E+00  0.2410E+02
   6.984  0.7167E+00  0.2411E+02
   6.994  0.7218E+00  0.2412E+02
   7.004  0.7265E+00  0.2412E+02
   7.014  0.7309E+00  0.2413E+02
   7.024  0.7351E+00  0.2414E+02
   7.034  0.7389E+00  0.2415E+02
   7.044  0.7425E+00  0.2415E+02
   7.054  0.7458E+00  0.2416E+02
   7.064  0.7489E+00  0.2417E+02
   7.074  0.7518E+00  0.2418E+02
   7.084  0.7546E+00  0.2418E+02
   7.094  0.7572E+00  0.2419E+02
   7.104  0.7597E+00  0.2420E+02
   7.114  0.7621E+00  0.2421E+02
   7.124  0.7645E+00  0.2421E+02
   7.134  0.7668E+00  0.2422E+02
   7.144  0.7692E+00  0.2423E+02
   7.154  0.7716E+00  0.2424E+02
   7.164  0.7741E+00  0.2424E+02
   7.174  0.7766E+00  0.2425E+02
   7.184  0.7793E+00  0.2426E+02
   7.194  0.7821E+00  0.2427E+02
   7.204  0.7851E+00  0.2428E+02
   7.214  0.7882E+00  0.2428E+02
   7.224  0.7915E+00  0.2429E+02
   7.234  0.7949E+00  0.2430E+02
   7.244  0.7986E+00  0.2431E+02
   7.254  0.8024E+00  0.2432E+02
   7.264  0.8064E+00  0.2432E+02
   7.274  0.8105E+00  0.2433E+02
   7.284  0.8149E+00  0.2434E+02
   7.294  0.8193E+00  0.2435E+02
   7.304  0.8239E+00  0.2436E+02
   7.314  0.8286E+00  0.2436E+02
   7.324  0.8334E+00  0.2437E+02
   7.334  0.8383E+00  0.2438E+02
   7.344  0.8432E+00  0.2439E+02
   7.354  0.8482E+00  0.2440E+02
   7.364  0.8531E+00  0.2441E+02
   7.374  0.8581E+00  0.2442E+02
   7.384  0.8630E+00  0.2442E+02
   7.394  0.8679E+00  0.2443E+02
   7.404  0.8726E+00  0.2444E+02
   7.414  0.8773E+00  0.2445E+02
   7.424  0.8819E+00  0.2446E+02
   7.434  0.8864E+00  0.2447E+02
   7.444  0.8907E+00  0.2448E+02
   7.454  0.8948E+00  0.2449E+02
   7.464  0.8988E+00  0.2450E+02
   7.474  0.9027E+00  0.2450E+02
   7.484  0.9063E+00  0.2451E+02
   7.494  0.9098E+00  0.2452E+02
   7.504  0.9131E+00  0.2453E+02
   7.514  0.9163E+00  0.2454E+02
   7.524  0.9192E+00  0.2455E+02
   7.534  0.9220E+00  0.2456E+02
   7.544  0.9247E+00  0.2457E+02
   7.554  0.9271E+00  0.2458E+02
   7.564  0.9294E+00  0.2459E+02
   7.574  0.9316E+00  0.2460E+02
   7.584  0.9335E+00  0.2461E+02
   7.594  0.9354E+00  0.2461E+02
   7.604  0.9371E+00  0.2462E+02
   7.614  0.9386E+00  0.2463E+02
   7.624  0.9400E+00  0.2464E+02
   7.634  0.9412E+00  0.2465E+02
   7.644  0.9423E+00  0.2466E+02
   7.654  0.9433E+00  0.2467E+02
   7.664  0.9441E+00  0.2468E+02
   7.674  0.9447E+00  0.2469E+02
   7.684  0.9452E+00  0.2470E+02
   7.694  0.9455E+00  0.2471E+02
   7.704  0.9456E+00  0.2472E+02
   7.714  0.9455E+00  0.2473E+02
   7.724  0.9453E+00  0.2474E+02
   7.734  0.9448E+00  0.2475E+02
   7.744  0.9442E+00  0.2476E+02
   7.754  0.9434E+00  0.2477E+02
   7.764  0.9423E+00  0.2478E+02
   7.774  0.9411E+00  0.2478E+02
   7.784  0.9396E+00  0.2479E+02
   7.794  0.9379E+00  0.2480E+02
   7.804  0.9361E+00  0.2481E+02
   7.814  0.9340E+00  0.2482E+02
   7.824  0.9318E+00  0.2483E+02
   7.834  0.9294E+00  0.2484E+02
   7.844  0.9268E+00  0.2485E+02
   7.854  0.9241E+00  0.2486E+02
   7.864  0.9212E+00  0.2487E+02
   7.874  0.9183E+00  0.2488E+02
   7.884  0.9152E+00  0.2489E+02
   7.894  0.9122E+00  0.2490E+02
   7.904  0.9091E+00  0.2490E+02
   7.914  0.9059E+00  0.2491E+02
   7.924  0.9029E+00  0.2492E+02
   7.934  0.8998E+00  0.2493E+02
   7.944  0.8969E+00  0.2494E+02
   7.954  0.8941E+00  0.2495E+02
   7.964  0.8914E+00  0.2496E+02
   7.974  0.8890E+00  0.2497E+02
   7.984  0.8867E+00  0.2498E+02
   7.994  0.8846E+00  0.2499E+02
   8.004  0.8828E+00  0.2499E+02
   8.014  0.8813E+00  0.2500E+02
   8.024  0.8801E+00  0.2501E+02
   8.034  0.8792E+00  0.2502E+02
   8.044  0.8786E+00  0.2503E+02
   8.054  0.8783E+00  0.2504E+02
   8.064  0.8784E+00  0.2505E+02
   8.074  0.8788E+00  0.2506E+02
   8.084  0.8795E+00  0.2506E+02
   8.094  0.8806E+00  0.2507E+02
   8.104  0.8819E+00  0.2508E+02
   8.114  0.8836E+00  0.2509E+02
   8.124  0.8855E+00  0.2510E+02
   8.134  0.8878E+00  0.2511E+02
   8.144  0.8902E+00  0.2512E+02
   8.154  0.8929E+00  0.2513E+02
   8.164  0.8957E+00  0.2514E+02
   8.174  0.8987E+00  0.2514E+02
   8.184  0.9018E+00  0.2515E+02
   8.194  0.9050E+00  0.2516E+02
   8.204  0.9083E+00  0.2517E+02
   8.214  0.9116E+00  0.2518E+02
   8.224  0.9150E+00  0.2519E+02
   8.234  0.9182E+00  0.2520E+02
   8.244  0.9215E+00  0.2521E+02
   8.254  0.9246E+00  0.2522E+02
   8.264  0.9276E+00  0.2523E+02
   8.274  0.9305E+00  0.2524E+02
   8.284  0.9332E+00  0.2525E+02
   8.294  0.9358E+00  0.2525E+02
   8.304  0.9381E+00  0.2526E+02
   8.314  0.9402E+00  0.2527E+02
   8.324  0.9421E+00  0.2528E+02
   8.334  0.9438E+00  0.2529E+02
   8.344  0.9452E+00  0.2530E+02
   8.354  0.9464E+00  0.2531E+02
   8.364  0.9474E+00  0.2532E+02
   8.374  0.9481E+00  0.2533E+02
   8.384  0.9487E+00  0.2534E+02
   8.394  0.9490E+00  0.2535E+02
   8.404  0.9492E+00  0.2536E+02
   8.414  0.9492E+00  0.2537E+02
   8.424  0.9490E+00  0.2538E+02
   8.434  0.9487E+00  0.2539E+02
   8.444  0.9483E+00  0.2540E+02
   8.454  0.9479E+00  0.2541E+02
   8.464  0.9474E+00  0.2542E+02
   8.474  0.9470E+00  0.2543E+02
   8.484  0.9465E+00  0.2543E+02
   8.494  0.9461E+00  0.2544E+02
   8.504  0.9458E+00  0.2545E+02
   8.514  0.9457E+00  0.2546E+02
   8.524  0.9456E+00  0.2547E+02
   8.534  0.9458E+00  0.2548E+02
   8.544  0.9462E+00  0.2549E+02
   8.554  0.9469E+00  0.2550E+02
   8.564  0.9478E+00  0.2551E+02
   8.574  0.9490E+00  0.2552E+02
   8.584  0.9505E+00  0.2553E+02
   8.594  0.9524E+00  0.2554E+02
   8.604  0.9546E+00  0.2555E+02
   8.614  0.9571E+00  0.2556E+02
   8.624  0.9601E+00  0.2557E+02
   8.634  0.9634E+00  0.2558E+02
   8.644  0.9671E+00  0.2559E+02
   8.654  0.9712E+00  0.2560E+02
   8.664  0.9757E+00  0.2561E+02
   8.674  0.9805E+00  0.2562E+02
   8.684  0.9856E+00  0.2563E+02
   8.694  0.9911E+00  0.2564E+02
   8.704  0.9970E+00  0.2565E+02
   8.714  0.1003E+01  0.2566E+02
   8.724  0.1010E+01  0.2567E+02
   8.734  0.1016E+01  0.2568E+02
   8.744  0.1023E+01  0.2569E+02
   8.754  0.1030E+01  0.2570E+02
   8.764  0.1037E+01  0.2571E+02
   8.774  0.1045E+01  0.2572E+02
   8.784  0.1052E+01  0.2573E+02
   8.794  0.1060E+01  0.2574E+02
   8.804  0.1067E+01  0.2575E+02
   8.814  0.1075E+01  0.2576E+02
   8.824  0.1083E+01  0.2577E+02
   8.834  0.1090E+01  0.2578E+02
   8.844  0.1098E+01  0.2579E+02
   8.854  0.1105E+01  0.2580E+02
   8.864  0.1112E+01  0.2581E+02
   8.874  0.1119E+01  0.2583E+02
   8.884  0.1126E+01  0.2584E+02
   8.894  0.1132E+01  0.2585E+02
   8.904  0.1139E+01  0.2586E+02
   8.914  0.1145E+01  0.2587E+02
   8.924  0.1151E+01  0.2588E+02
   8.934  0.1156E+01  0.2589E+02
   8.944  0.1161E+01  0.2591E+02
   8.954  0.1166E+01  0.2592E+02
   8.964  0.1171E+01  0.2593E+02
   8.974  0.1175E+01  0.2594E+02
   8.984  0.1179E+01  0.2595E+02
   8.994  0.1182E+01  0.2596E+02
   9.004  0.1185E+01  0.2598E+02
   9.014  0.1188E+01  0.2599E+02
   9.024  0.1191E+01  0.2600E+02
   9.034  0.1193E+01  0.2601E+02
   9.044  0.1194E+01  0.2602E+02
   9.054  0.1196E+01  0.2604E+02
   9.064  0.1197E+01  0.2605E+02
   9.074  0.1198E+01  0.2606E+02
   9.084  0.1198E+01  0.2607E+02
   9.094  0.1199E+01  0.2608E+02
   9.104  0.1199E+01  0.2610E+02
   9.114  0.1199E+01  0.2611E+02
   9.124  0.1199E+01  0.2612E+02
   9.134  0.1198E+01  0.2613E+02
   9.144  0.1198E+01  0.2614E+02
   9.154  0.1197E+01  0.2616E+02
   9.164  0.1196E+01  0.2617E+02
   9.174  0.1195E+01  0.2618E+02
   9.184  0.1195E+01  0.2619E+02
   9.194  0.1194E+01  0.2620E+02
   9.204  0.1193E+01  0.2622E+02
   9.214  0.1193E+01  0.2623E+02
   9.224  0.1193E+01  0.2624E+02
   9.234  0.1192E+01  0.2625E+02
   9.244  0.1192E+01  0.2626E+02
   9.254  0.1193E+01  0.2628E+02
   9.264  0.1193E+01  0.2629E+02
   9.274  0.1194E+01  0.2630E+02
   9.284  0.1195E+01  0.2631E+02
   9.294  0.1196E+01  0.2632E+02
   9.304  0.1198E+01  0.2634E+02
   9.314  0.1200E+01  0.2635E+02
   9.324  0.1202E+01  0.2636E+02
   9.334  0.1205E+01  0.2637E+02
   9.344  0.1208E+01  0.2638E+02
   9.354  0.1211E+01  0.2640E+02
   9.364  0.1215E+01  0.2641E+02
   9.374  0.1218E+01  0.2642E+02
   9.384  0.1222E+01  0.2643E+02
   9.394  0.1227E+01  0.2644E+02
   9.404  0.1231E+01  0.2646E+02
   9.414  0.1236E+01  0.2647E+02
   9.424  0.1241E+01  0.2648E+02
   9.434  0.1246E+01  0.2649E+02
   9.444  0.1251E+01  0.2651E+02
   9.454  0.1256E+01  0.2652E+02
   9.464  0.1261E+01  0.2653E+02
   9.474  0.1266E+01  0.2654E+02
   9.484  0.1270E+01  0.2656E+02
   9.494  0.1275E+01  0.2657E+02
   9.504  0.1279E+01  0.2658E+02
   9.514  0.1283E+01  0.2660E+02
   9.524  0.1287E+01  0.2661E+02
   9.534  0.1290E+01  0.2662E+02
   9.544  0.1293E+01  0.2663E+02
   9.554  0.1295E+01  0.2665E+02
   9.564  0.1297E+01  0.2666E+02
   9.574  0.1299E+01  0.2667E+02
   9.584  0.1300E+01  0.2669E+02
   9.594  0.1300E+01  0.2670E+02
   9.604  0.1300E+01  0.2671E+02
   9.614  0.1300E+01  0.2673E+02
   9.624  0.1299E+01  0.2674E+02
   9.634  0.1297E+01  0.2675E+02
   9.644  0.1295E+01  0.2676E+02
   9.654  0.1292E+01  0.2678E+02
   9.664  0.1289E+01  0.2679E+02
   9.674  0.1286E+01  0.2680E+02
   9.684  0.1282E+01  0.2682E+02
   9.694  0.1277E+01  0.2683E+02
   9.704  0.1273E+01  0.2684E+02
   9.714  0.1268E+01  0.2685E+02
   9.724  0.1262E+01  0.2687E+02
   9.734  0.1257E+01  0.2688E+02
   9.744  0.1251E+01  0.2689E+02
   9.754  0.1245E+01  0.2690E+02
   9.764  0.1240E+01  0.2692E+02
   9.774  0.1234E+01  0.2693E+02
   9.784  0.1228E+01  0.2694E+02
   9.794  0.1222E+01  0.2695E+02
   9.804  0.1216E+01  0.2697E+02
   9.814  0.1210E+01  0.2698E+02
   9.824  0.1204E+01  0.2699E+02
   9.834  0.1198E+01  0.2700E+02
   9.844  0.1193E+01  0.2701E+02
   9.854  0.1187E+01  0.2703E+02
   9.864  0.1182E+01  0.2704E+02
   9.874  0.1177E+01  0.2705E+02
   9.884  0.1172E+01  0.2706E+02
   9.894  0.1167E+01  0.2707E+02
   9.904  0.1163E+01  0.2708E+02
   9.914  0.1158E+01  0.2710E+02
   9.924  0.1154E+01  0.2711E+02
   9.934  0.1149E+01  0.2712E+02
   9.944  0.1145E+01  0.2713E+02
   9.954  0.1141E+01  0.2714E+02
   9.964  0.1137E+01  0.2715E+02
   9.974  0.1133E+01  0.2716E+02
   9.984  0.1129E+01  0.2718E+02
   9.994  0.1125E+01  0.2719E+02
  10.004  0.1122E+01  0.2720E+02
  10.014  0.1118E+01  0.2721E+02
  10.024  0.1114E+01  0.2722E+02
  10.034  0.1110E+01  0.2723E+02
  10.044  0.1106E+01  0.2724E+02
  10.054  0.1102E+01  0.2725E+02
  10.064  0.1098E+01  0.2726E+02
  10.074  0.1094E+01  0.2728E+02
  10.084  0.1090E+01  0.2729E+02
  10.094  0.1086E+01  0.2730E+02
  10.104  0.1082E+01  0.2731E+02
  10.114  0.1077E+01  0.2732E+02
  10.124  0.1073E+01  0.2733E+02
  10.134  0.1069E+01  0.2734E+02
  10.144  0.1065E+01  0.2735E+02
  10.154  0.1060E+01  0.2736E+02
  10.164  0.1056E+01  0.2737E+02
  10.174  0.1052E+01  0.2738E+02
  10.184  0.1048E+01  0.2739E+02
  10.194  0.1044E+01  0.2740E+02
  10.204  0.1039E+01  0.2741E+02
  10.214  0.1035E+01  0.2742E+02
  10.224  0.1032E+01  0.2743E+02
  10.234  0.1028E+01  0.2744E+02
  10.244  0.1024E+01  0.2745E+02
  10.254  0.1020E+01  0.2746E+02
  10.264  0.1017E+01  0.2748E+02
  10.274  0.1014E+01  0.2749E+02
  10.284  0.1010E+01  0.2750E+02
  10.294  0.1007E+01  0.2751E+02
  10.304  0.1004E+01  0.2752E+02
  10.314  0.1002E+01  0.2753E+02
  10.324  0.9990E+00  0.2754E+02
  10.334  0.9965E+00  0.2755E+02
  10.344  0.9941E+00  0.2756E+02
  10.354  0.9919E+00  0.2757E+02
  10.364  0.9898E+00  0.2758E+02
  10.374  0.9879E+00  0.2758E+02
  10.384  0.9862E+00  0.2759E+02
  10.394  0.9845E+00  0.2760E+02
  10.404  0.9831E+00  0.2761E+02
  10.414  0.9817E+00  0.2762E+02
  10.424  0.9805E+00  0.2763E+02
  10.434  0.9795E+00  0.2764E+02
  10.444  0.9786E+00  0.2765E+02
  10.454  0.9778E+00  0.2766E+02
  10.464  0.9772E+00  0.2767E+02
  10.474  0.9768E+00  0.2768E+02
  10.484  0.9764E+00  0.2769E+02
  10.494  0.9763E+00  0.2770E+02
  10.504  0.9763E+00  0.2771E+02
  10.514  0.9764E+00  0.2772E+02
  10.524  0.9767E+00  0.2773E+02
  10.534  0.9771E+00  0.2774E+02
  10.544  0.9777E+00  0.2775E+02
  10.554  0.9784E+00  0.2776E+02
  10.564  0.9793E+00  0.2777E+02
  10.574  0.9803E+00  0.2778E+02
  10.584  0.9814E+00  0.2779E+02
  10.594  0.9826E+00  0.2780E+02
  10.604  0.9839E+00  0.2781E+02
  10.614  0.9853E+00  0.2782E+02
  10.624  0.9868E+00  0.2783E+02
  10.634  0.9884E+00  0.2784E+02
  10.644  0.9899E+00  0.2785E+02
  10.654  0.9915E+00  0.2786E+02
  10.664  0.9931E+00  0.2787E+02
  10.674  0.9947E+00  0.2788E+02
  10.684  0.9962E+00  0.2789E+02
  10.694  0.9976E+00  0.2790E+02
  10.704  0.9990E+00  0.2791E+02
  10.714  0.1000E+01  0.2792E+02
  10.724  0.1001E+01  0.2793E+02
  10.734  0.1002E+01  0.2794E+02
  10.744  0.1003E+01  0.2795E+02
  10.754  0.1003E+01  0.2796E+02
  10.764  0.1003E+01  0.2797E+02
  10.774  0.1003E+01  0.2798E+02
  10.784  0.1003E+01  0.2799E+02
  10.794  0.1002E+01  0.2800E+02
  10.804  0.1001E+01  0.2801E+02
  10.814  0.1000E+01  0.2802E+02
  10.824  0.9985E+00  0.2803E+02
  10.834  0.9966E+00  0.2804E+02
  10.844  0.9944E+00  0.2805E+02
  10.854  0.9919E+00  0.2806E+02
  10.864  0.9891E+00  0.2807E+02
  10.874  0.9860E+00  0.2808E+02
  10.884  0.9827E+00  0.2809E+02
  10.894  0.9791E+00  0.2810E+02
  10.904  0.9754E+00  0.2811E+02
  10.914  0.9714E+00  0.2812E+02
  10.924  0.9674E+00  0.2813E+02
  10.934  0.9632E+00  0.2814E+02
  10.944  0.9589E+00  0.2815E+02
  10.954  0.9546E+00  0.2816E+02
  10.964  0.9503E+00  0.2817E+02
  10.974  0.9460E+00  0.2818E+02
  10.984  0.9418E+00  0.2819E+02
  10.994  0.9377E+00  0.2819E+02
  11.004  0.9338E+00  0.2820E+02
  11.014  0.9300E+00  0.2821E+02
  11.024  0.9265E+00  0.2822E+02
  11.034  0.9232E+00  0.2823E+02
  11.044  0.9202E+00  0.2824E+02
  11.054  0.9174E+00  0.2825E+02
  11.064  0.9150E+00  0.2826E+02
  11.074  0.9129E+00  0.2827E+02
  11.084  0.9112E+00  0.2828E+02
  11.094  0.9098E+00  0.2829E+02
  11.104  0.9087E+00  0.2830E+02
  11.114  0.9080E+00  0.2830E+02
  11.124  0.9077E+00  0.2831E+02
  11.134  0.9076E+00  0.2832E+02
  11.144  0.9079E+00  0.2833E+02
  11.154  0.9086E+00  0.2834E+02
  11.164  0.9095E+00  0.2835E+02
  11.174  0.9107E+00  0.2836E+02
  11.184  0.9121E+00  0.2837E+02
  11.194  0.9137E+00  0.2838E+02
  11.204  0.9155E+00  0.2839E+02
  11.214  0.9175E+00  0.2840E+02
  11.224  0.9196E+00  0.2841E+02
  11.234  0.9218E+00  0.2841E+02
  11.244  0.9241E+00  0.2842E+02
  11.254  0.9263E+00  0.2843E+02
  11.264  0.9286E+00  0.2844E+02
  11.274  0.9308E+00  0.2845E+02
  11.284  0.9329E+00  0.2846E+02
  11.294  0.9350E+00  0.2847E+02
  11.304  0.9369E+00  0.2848E+02
  11.314  0.9386E+00  0.2849E+02
  11.324  0.9402E+00  0.2850E+02
  11.334  0.9415E+00  0.2851E+02
  11.344  0.9427E+00  0.2852E+02
  11.354  0.9436E+00  0.2853E+02
  11.364  0.9443E+00  0.2854E+02
  11.374  0.9448E+00  0.2855E+02
  11.384  0.9450E+00  0.2855E+02
  11.394  0.9450E+00  0.2856E+02
  11.404  0.9447E+00  0.2857E+02
  11.414  0.9442E+00  0.2858E+02
  11.424  0.9435E+00  0.2859E+02
  11.434  0.9426E+00  0.2860E+02
  11.444  0.9415E+00  0.2861E+02
  11.454  0.9403E+00  0.2862E+02
  11.464  0.9390E+00  0.2863E+02
  11.474  0.9375E+00  0.2864E+02
  11.484  0.9360E+00  0.2865E+02
  11.494  0.9345E+00  0.2866E+02
  11.504  0.9329E+00  0.2867E+02
  11.514  0.9314E+00  0.2868E+02
  11.524  0.9300E+00  0.2869E+02
  11.534  0.9286E+00  0.2870E+02
  11.544  0.9274E+00  0.2870E+02
  11.554  0.9264E+00  0.2871E+02
  11.564  0.9255E+00  0.2872E+02
  11.574  0.9249E+00  0.2873E+02
  11.584  0.9246E+00  0.2874E+02
  11.594  0.9245E+00  0.2875E+02
  11.604  0.9248E+00  0.2876E+02
  11.614  0.9254E+00  0.2877E+02
  11.624  0.9263E+00  0.2878E+02
  11.634  0.9276E+00  0.2879E+02
  11.644  0.9292E+00  0.2880E+02
  11.654  0.9312E+00  0.2881E+02
  11.664  0.9336E+00  0.2882E+02
  11.674  0.9363E+00  0.2883E+02
  11.684  0.9394E+00  0.2883E+02
  11.694  0.9428E+00  0.2884E+02
  11.704  0.9465E+00  0.2885E+02
  11.714  0.9505E+00  0.2886E+02
  11.724  0.9548E+00  0.2887E+02
  11.734  0.9593E+00  0.2888E+02
  11.744  0.9640E+00  0.2889E+02
  11.754  0.9689E+00  0.2890E+02
  11.764  0.9740E+00  0.2891E+02
  11.774  0.9791E+00  0.2892E+02
  11.784  0.9843E+00  0.2893E+02
  11.794  0.9895E+00  0.2894E+02
  11.804  0.9947E+00  0.2895E+02
  11.814  0.9998E+00  0.2896E+02
  11.824  0.1005E+01  0.2897E+02
  11.834  0.1010E+01  0.2898E+02
  11.844  0.1014E+01  0.2899E+02
  11.854  0.1019E+01  0.2900E+02
  11.864  0.1023E+01  0.2901E+02
  11.874  0.1027E+01  0.2902E+02
  11.884  0.1031E+01  0.2903E+02
  11.894  0.1034E+01  0.2904E+02
  11.904  0.1037E+01  0.2905E+02
  11.914  0.1040E+01  0.2906E+02
  11.924  0.1042E+01  0.2907E+02
  11.934  0.1044E+01  0.2908E+02
  11.944  0.1045E+01  0.2909E+02
  11.954  0.1047E+01  0.2911E+02
  11.964  0.1047E+01  0.2912E+02
  11.974  0.1048E+01  0.2913E+02
  11.984  0.1047E+01  0.2914E+02
  11.994  0.1047E+01  0.2915E+02
  12.004  0.1046E+01  0.2916E+02
  12.014  0.1045E+01  0.2917E+02
  12.024  0.1044E+01  0.2918E+02
  12.034  0.1042E+01  0.2919E+02
  12.044  0.1040E+01  0.2920E+02
  12.054  0.1037E+01  0.2921E+02
  12.064  0.1035E+01  0.2922E+02
  12.074  0.1032E+01  0.2923E+02
  12.084  0.1029E+01  0.2924E+02
  12.094  0.1025E+01  0.2925E+02
  12.104  0.1022E+01  0.2926E+02
  12.114  0.1018E+01  0.2927E+02
  12.124  0.1015E+01  0.2928E+02
  12.134  0.1011E+01  0.2929E+02
  12.144  0.1007E+01  0.2930E+02
  12.154  0.1003E+01  0.2931E+02
  12.164  0.9986E+00  0.2932E+02
  12.174  0.9944E+00  0.2933E+02
  12.184  0.9902E+00  0.2934E+02
  12.194  0.9859E+00  0.2935E+02
  12.204  0.9817E+00  0.2936E+02
  12.214  0.9774E+00  0.2937E+02
  12.224  0.9731E+00  0.2938E+02
  12.234  0.9688E+00  0.2939E+02
  12.244  0.9645E+00  0.2940E+02
  12.254  0.9602E+00  0.2941E+02
  12.264  0.9560E+00  0.2942E+02
  12.274  0.9517E+00  0.2943E+02
  12.284  0.9476E+00  0.2944E+02
  12.294  0.9434E+00  0.2945E+02
  12.304  0.9393E+00  0.2946E+02
  12.314  0.9353E+00  0.2947E+02
  12.324  0.9313E+00  0.2948E+02
  12.334  0.9274E+00  0.2948E+02
  12.344  0.9236E+00  0.2949E+02
  12.354  0.9199E+00  0.2950E+02
  12.364  0.9162E+00  0.2951E+02
  12.374  0.9127E+00  0.2952E+02
  12.384  0.9094E+00  0.2953E+02
  12.394  0.9062E+00  0.2954E+02
  12.404  0.9031E+00  0.2955E+02
  12.414  0.9003E+00  0.2956E+02
  12.424  0.8976E+00  0.2957E+02
  12.434  0.8951E+00  0.2958E+02
  12.444  0.8929E+00  0.2958E+02
  12.454  0.8910E+00  0.2959E+02
  12.464  0.8893E+00  0.2960E+02
  12.474  0.8879E+00  0.2961E+02
  12.484  0.8868E+00  0.2962E+02
  12.494  0.8860E+00  0.2963E+02
  12.504  0.8855E+00  0.2964E+02
  12.514  0.8854E+00  0.2965E+02
  12.524  0.8857E+00  0.2966E+02
  12.534  0.8863E+00  0.2966E+02
  12.544  0.8873E+00  0.2967E+02
  12.554  0.8887E+00  0.2968E+02
  12.564  0.8905E+00  0.2969E+02
  12.574  0.8926E+00  0.2970E+02
  12.584  0.8952E+00  0.2971E+02
  12.594  0.8981E+00  0.2972E+02
  12.604  0.9014E+00  0.2973E+02
  12.614  0.9051E+00  0.2974E+02
  12.624  0.9092E+00  0.2974E+02
  12.634  0.9135E+00  0.2975E+02
  12.644  0.9182E+00  0.2976E+02
  12.654  0.9232E+00  0.2977E+02
  12.664  0.9285E+00  0.2978E+02
  12.674  0.9340E+00  0.2979E+02
  12.684  0.9398E+00  0.2980E+02
  12.694  0.9457E+00  0.2981E+02
  12.704  0.9519E+00  0.2982E+02
  12.714  0.9581E+00  0.2983E+02
  12.724  0.9645E+00  0.2984E+02
  12.734  0.9710E+00  0.2985E+02
  12.744  0.9774E+00  0.2986E+02
  12.754  0.9839E+00  0.2987E+02
  12.764  0.9904E+00  0.2988E+02
  12.774  0.9968E+00  0.2989E+02
  12.784  0.1003E+01  0.2990E+02
  12.794  0.1009E+01  0.2991E+02
  12.804  0.1015E+01  0.2992E+02
  12.814  0.1021E+01  0.2993E+02
  12.824  0.1027E+01  0.2994E+02
  12.834  0.1032E+01  0.2995E+02
  12.844  0.1038E+01  0.2996E+02
  12.854  0.1043E+01  0.2997E+02
  12.864  0.1047E+01  0.2998E+02
  12.874  0.1052E+01  0.2999E+02
  12.884  0.1056E+01  0.3000E+02
  12.894  0.1059E+01  0.3001E+02
  12.904  0.1063E+01  0.3002E+02
  12.914  0.1066E+01  0.3003E+02
  12.924  0.1069E+01  0.3004E+02
  12.934  0.1071E+01  0.3005E+02
  12.944  0.1074E+01  0.3007E+02
  12.954  0.1075E+01  0.3008E+02
  12.964  0.1077E+01  0.3009E+02
  12.974  0.1078E+01  0.3010E+02
  12.984  0.1079E+01  0.3011E+02
  12.994  0.1080E+01  0.3012E+02
  13.004  0.1081E+01  0.3013E+02
  13.014  0.1081E+01  0.3014E+02
  13.024  0.1081E+01  0.3015E+02
  13.034  0.1081E+01  0.3016E+02
  13.044  0.1081E+01  0.3017E+02
  13.054  0.1081E+01  0.3018E+02
  13.064  0.1080E+01  0.3019E+02
  13.074  0.1080E+01  0.3021E+02
  13.084  0.1079E+01  0.3022E+02
  13.094  0.1078E+01  0.3023E+02
  13.104  0.1078E+01  0.3024E+02
  13.114  0.1077E+01  0.3025E+02
  13.124  0.1076E+01  0.3026E+02
  13.134  0.1075E+01  0.3027E+02
  13.144  0.1074E+01  0.3028E+02
  13.154  0.1074E+01  0.3029E+02
  13.164  0.1073E+01  0.3030E+02
  13.174  0.1072E+01  0.3031E+02
  13.184  0.1072E+01  0.3032E+02
  13.194  0.1071E+01  0.3033E+02
  13.204  0.1071E+01  0.3035E+02
  13.214  0.1071E+01  0.3036E+02
  13.224  0.1071E+01  0.3037E+02
  13.234  0.1071E+01  0.3038E+02
  13.244  0.1071E+01  0.3039E+02
  13.254  0.1071E+01  0.3040E+02
  13.264  0.1071E+01  0.3041E+02
  13.274  0.1072E+01  0.3042E+02
  13.284  0.1072E+01  0.3043E+02
  13.294  0.1073E+01  0.3044E+02
  13.304  0.1074E+01  0.3045E+02
  13.314  0.1075E+01  0.3046E+02
  13.324  0.1076E+01  0.3047E+02
  13.334  0.1077E+01  0.3048E+02
  13.344  0.1079E+01  0.3050E+02
  13.354  0.1080E+01  0.3051E+02
  13.364  0.1082E+01  0.3052E+02
  13.374  0.1084E+01  0.3053E+02
  13.384  0.1086E+01  0.3054E+02
  13.394  0.1088E+01  0.3055E+02
  13.404  0.1090E+01  0.3056E+02
  13.414  0.1092E+01  0.3057E+02
  13.424  0.1095E+01  0.3058E+02
  13.434  0.1097E+01  0.3059E+02
  13.444  0.1100E+01  0.3060E+02
  13.454  0.1102E+01  0.3062E+02
  13.464  0.1105E+01  0.3063E+02
  13.474  0.1108E+01  0.3064E+02
  13.484  0.1111E+01  0.3065E+02
  13.494  0.1113E+01  0.3066E+02
  13.504  0.1116E+01  0.3067E+02
  13.514  0.1119E+01  0.3068E+02
  13.524  0.1122E+01  0.3069E+02
  13.534  0.1125E+01  0.3070E+02
  13.544  0.1128E+01  0.3072E+02
  13.554  0.1131E+01  0.3073E+02
  13.564  0.1134E+01  0.3074E+02
  13.574  0.1136E+01  0.3075E+02
  13.584  0.1139E+01  0.3076E+02
  13.594  0.1142E+01  0.3077E+02
  13.604  0.1145E+01  0.3078E+02
  13.614  0.1147E+01  0.3080E+02
  13.624  0.1150E+01  0.3081E+02
  13.634  0.1152E+01  0.3082E+02
  13.644  0.1155E+01  0.3083E+02
  13.654  0.1157E+01  0.3084E+02
  13.664  0.1160E+01  0.3085E+02
  13.674  0.1162E+01  0.3087E+02
  13.684  0.1164E+01  0.3088E+02
  13.694  0.1167E+01  0.3089E+02
  13.704  0.1169E+01  0.3090E+02
  13.714  0.1171E+01  0.3091E+02
  13.724  0.1173E+01  0.3092E+02
  13.734  0.1175E+01  0.3094E+02
  13.744  0.1178E+01  0.3095E+02
  13.754  0.1180E+01  0.3096E+02
  13.764  0.1182E+01  0.3097E+02
  13.774  0.1184E+01  0.3098E+02
  13.784  0.1187E+01  0.3099E+02
  13.794  0.1189E+01  0.3101E+02
  13.804  0.1192E+01  0.3102E+02
  13.814  0.1194E+01  0.3103E+02
  13.824  0.1197E+01  0.3104E+02
  13.834  0.1200E+01  0.3105E+02
  13.844  0.1203E+01  0.3107E+02
  13.854  0.1206E+01  0.3108E+02
  13.864  0.1209E+01  0.3109E+02
  13.874  0.1212E+01  0.3110E+02
  13.884  0.1215E+01  0.3111E+02
  13.894  0.1219E+01  0.3113E+02
  13.904  0.1222E+01  0.3114E+02
  13.914  0.1226E+01  0.3115E+02
  13.924  0.1230E+01  0.3116E+02
  13.934  0.1234E+01  0.3118E+02
  13.944  0.1238E+01  0.3119E+02
  13.954  0.1242E+01  0.3120E+02
  13.964  0.1246E+01  0.3121E+02
  13.974  0.1250E+01  0.3123E+02
  13.984  0.1254E+01  0.3124E+02
  13.994  0.1258E+01  0.3125E+02
  14.004  0.1263E+01  0.3126E+02
  14.014  0.1267E+01  0.3128E+02
  14.024  0.1271E+01  0.3129E+02
  14.034  0.1275E+01  0.3130E+02
  14.044  0.1279E+01  0.3131E+02
  14.054  0.1282E+01  0.3133E+02
  14.064  0.1286E+01  0.3134E+02
  14.074  0.1289E+01  0.3135E+02
  14.084  0.1292E+01  0.3137E+02
  14.094  0.1295E+01  0.3138E+02
  14.104  0.1298E+01  0.3139E+02
  14.114  0.1300E+01  0.3140E+02
  14.124  0.1302E+01  0.3142E+02
  14.134  0.1304E+01  0.3143E+02
  14.144  0.1306E+01  0.3144E+02
  14.154  0.1307E+01  0.3146E+02
  14.164  0.1308E+01  0.3147E+02
  14.174  0.1309E+01  0.3148E+02
  14.184  0.1309E+01  0.3150E+02
  14.194  0.1309E+01  0.3151E+02
  14.204  0.1309E+01  0.3152E+02
  14.214  0.1309E+01  0.3154E+02
  14.224  0.1308E+01  0.3155E+02
  14.234  0.1307E+01  0.3156E+02
  14.244  0.1306E+01  0.3157E+02
  14.254  0.1305E+01  0.3159E+02
  14.264  0.1303E+01  0.3160E+02
  14.274  0.1302E+01  0.3161E+02
  14.284  0.1301E+01  0.3163E+02
  14.294  0.1299E+01  0.3164E+02
  14.304  0.1298E+01  0.3165E+02
  14.314  0.1296E+01  0.3167E+02
  14.324  0.1295E+01  0.3168E+02
  14.334  0.1294E+01  0.3169E+02
  14.344  0.1293E+01  0.3170E+02
  14.354  0.1292E+01  0.3172E+02
  14.364  0.1292E+01  0.3173E+02
  14.374  0.1292E+01  0.3174E+02
  14.384  0.1292E+01  0.3176E+02
  14.394  0.1293E+01  0.3177E+02
  14.404  0.1294E+01  0.3178E+02
  14.414  0.1295E+01  0.3180E+02
  14.424  0.1297E+01  0.3181E+02
  14.434  0.1299E+01  0.3182E+02
  14.444  0.1302E+01  0.3183E+02
  14.454  0.1305E+01  0.3185E+02
  14.464  0.1309E+01  0.3186E+02
  14.474  0.1313E+01  0.3187E+02
  14.484  0.1318E+01  0.3189E+02
  14.494  0.1323E+01  0.3190E+02
  14.504  0.1329E+01  0.3191E+02
  14.514  0.1335E+01  0.3193E+02
  14.524  0.1342E+01  0.3194E+02
  14.534  0.1348E+01  0.3195E+02
  14.544  0.1356E+01  0.3197E+02
  14.554  0.1363E+01  0.3198E+02
  14.564  0.1371E+01  0.3199E+02
  14.574  0.1379E+01  0.3201E+02
  14.584  0.1387E+01  0.3202E+02
  14.594  0.1396E+01  0.3204E+02
  14.604  0.1404E+01  0.3205E+02
  14.614  0.1413E+01  0.3206E+02
  14.624  0.1422E+01  0.3208E+02
  14.634  0.1430E+01  0.3209E+02
  14.644  0.1439E+01  0.3211E+02
  14.654  0.1447E+01  0.3212E+02
  14.664  0.1455E+01  0.3214E+02
  14.674  0.1463E+01  0.3215E+02
  14.684  0.1471E+01  0.3217E+02
  14.694  0.1478E+01  0.3218E+02
  14.704  0.1485E+01  0.3219E+02
  14.714  0.1492E+01  0.3221E+02
  14.724  0.1499E+01  0.3222E+02
  14.734  0.1505E+01  0.3224E+02
  14.744  0.1510E+01  0.3226E+02
  14.754  0.1515E+01  0.3227E+02
  14.764  0.1520E+01  0.3229E+02
  14.774  0.1525E+01  0.3230E+02
  14.784  0.1529E+01  0.3232E+02
  14.794  0.1533E+01  0.3233E+02
  14.804  0.1536E+01  0.3235E+02
  14.814  0.1539E+01  0.3236E+02
  14.824  0.1542E+01  0.3238E+02
  14.834  0.1544E+01  0.3239E+02
  14.844  0.1546E+01  0.3241E+02
  14.854  0.1548E+01  0.3242E+02
  14.864  0.1550E+01  0.3244E+02
  14.874  0.1551E+01  0.3245E+02
  14.884  0.1553E+01  0.3247E+02
  14.894  0.1554E+01  0.3249E+02
  14.904  0.1556E+01  0.3250E+02
  14.914  0.1557E+01  0.3252E+02
  14.924  0.1558E+01  0.3253E+02
  14.934  0.1560E+01  0.3255E+02
  14.944  0.1561E+01  0.3256E+02
  14.954  0.1562E+01  0.3258E+02
  14.964  0.1564E+01  0.3260E+02
  14.974  0.1566E+01  0.3261E+02
  14.984  0.1568E+01  0.3263E+02
  14.994  0.1570E+01  0.3264E+02
  15.004  0.1572E+01  0.3266E+02
  15.014  0.1574E+01  0.3267E+02
  15.024  0.1576E+01  0.3269E+02
  15.034  0.1579E+01  0.3271E+02
  15.044  0.1581E+01  0.3272E+02
  15.054  0.1584E+01  0.3274E+02
  15.064  0.1586E+01  0.3275E+02
  15.074  0.1589E+01  0.3277E+02
  15.084  0.1591E+01  0.3278E+02
  15.094  0.1593E+01  0.3280E+02
  15.104  0.1595E+01  0.3282E+02
  15.114  0.1597E+01  0.3283E+02
  15.124  0.1599E+01  0.3285E+02
  15.134  0.1600E+01  0.3286E+02
  15.144  0.1601E+01  0.3288E+02
  15.154  0.1601E+01  0.3290E+02
  15.164  0.1601E+01  0.3291E+02
  15.174  0.1601E+01  0.3293E+02
  15.184  0.1600E+01  0.3294E+02
  15.194  0.1598E+01  0.3296E+02
  15.204  0.1596E+01  0.3298E+02
  15.214  0.1593E+01  0.3299E+02
  15.224  0.1590E+01  0.3301E+02
  15.234  0.1586E+01  0.3302E+02
  15.244  0.1581E+01  0.3304E+02
  15.254  0.1576E+01  0.3306E+02
  15.264  0.1570E+01  0.3307E+02
  15.274  0.1563E+01  0.3309E+02
  15.284  0.1556E+01  0.3310E+02
  15.294  0.1548E+01  0.3312E+02
  15.304  0.1540E+01  0.3313E+02
  15.314  0.1532E+01  0.3315E+02
  15.324  0.1523E+01  0.3316E+02
  15.334  0.1513E+01  0.3318E+02
  15.344  0.1504E+01  0.3319E+02
  15.354  0.1494E+01  0.3321E+02
  15.364  0.1484E+01  0.3322E+02
  15.374  0.1474E+01  0.3324E+02
  15.384  0.1464E+01  0.3325E+02
  15.394  0.1454E+01  0.3327E+02
  15.404  0.1444E+01  0.3328E+02
  15.414  0.1435E+01  0.3330E+02
  15.424  0.1425E+01  0.3331E+02
  15.434  0.1416E+01  0.3332E+02
  15.444  0.1407E+01  0.3334E+02
  15.454  0.1398E+01  0.3335E+02
  15.464  0.1390E+01  0.3337E+02
  15.474  0.1382E+01  0.3338E+02
  15.484  0.1375E+01  0.3339E+02
  15.494  0.1368E+01  0.3341E+02
  15.504  0.1362E+01  0.3342E+02
  15.514  0.1356E+01  0.3344E+02
  15.524  0.1350E+01  0.3345E+02
  15.534  0.1345E+01  0.3346E+02
  15.544  0.1340E+01  0.3348E+02
  15.554  0.1336E+01  0.3349E+02
  15.564  0.1332E+01  0.3350E+02
  15.574  0.1329E+01  0.3352E+02
  15.584  0.1326E+01  0.3353E+02
  15.594  0.1323E+01  0.3354E+02
  15.604  0.1321E+01  0.3356E+02
  15.614  0.1318E+01  0.3357E+02
  15.624  0.1316E+01  0.3358E+02
  15.634  0.1315E+01  0.3359E+02
  15.644  0.1313E+01  0.3361E+02
  15.654  0.1311E+01  0.3362E+02
  15.664  0.1310E+01  0.3363E+02
  15.674  0.1308E+01  0.3365E+02
  15.684  0.1307E+01  0.3366E+02
  15.694  0.1305E+01  0.3367E+02
  15.704  0.1304E+01  0.3369E+02
  15.714  0.1302E+01  0.3370E+02
  15.724  0.1301E+01  0.3371E+02
  15.734  0.1299E+01  0.3373E+02
  15.744  0.1297E+01  0.3374E+02
  15.754  0.1295E+01  0.3375E+02
  15.764  0.1294E+01  0.3376E+02
  15.774  0.1292E+01  0.3378E+02
  15.784  0.1290E+01  0.3379E+02
  15.794  0.1288E+01  0.3380E+02
  15.804  0.1286E+01  0.3382E+02
  15.814  0.1284E+01  0.3383E+02
  15.824  0.1283E+01  0.3384E+02
  15.834  0.1281E+01  0.3385E+02
  15.844  0.1280E+01  0.3387E+02
  15.854  0.1278E+01  0.3388E+02
  15.864  0.1277E+01  0.3389E+02
  15.874  0.1276E+01  0.3391E+02
  15.884  0.1275E+01  0.3392E+02
  15.894  0.1275E+01  0.3393E+02
  15.904  0.1275E+01  0.3394E+02
  15.914  0.1275E+01  0.3396E+02
  15.924  0.1275E+01  0.3397E+02
  15.934  0.1276E+01  0.3398E+02
  15.944  0.1277E+01  0.3399E+02
  15.954  0.1278E+01  0.3401E+02
  15.964  0.1280E+01  0.3402E+02
  15.974  0.1282E+01  0.3403E+02
  15.984  0.1284E+01  0.3405E+02
  15.994  0.1286E+01  0.3406E+02
  16.004  0.1289E+01  0.3407E+02
  16.014  0.1292E+01  0.3408E+02
  16.024  0.1295E+01  0.3410E+02
  16.034  0.1298E+01  0.3411E+02
  16.044  0.1302E+01  0.3412E+02
  16.054  0.1305E+01  0.3414E+02
  16.064  0.1309E+01  0.3415E+02
  16.074  0.1313E+01  0.3416E+02
  16.084  0.1316E+01  0.3418E+02
  16.094  0.1319E+01  0.3419E+02
  16.104  0.1323E+01  0.3420E+02
  16.114  0.1326E+01  0.3422E+02
  16.124  0.1329E+01  0.3423E+02
  16.134  0.1331E+01  0.3424E+02
  16.144  0.1333E+01  0.3426E+02
  16.154  0.1335E+01  0.3427E+02
  16.164  0.1337E+01  0.3428E+02
  16.174  0.1338E+01  0.3430E+02
  16.184  0.1338E+01  0.3431E+02
  16.194  0.1338E+01  0.3432E+02
  16.204  0.1338E+01  0.3434E+02
  16.214  0.1337E+01  0.3435E+02
  16.224  0.1336E+01  0.3436E+02
  16.234  0.1333E+01  0.3438E+02
  16.244  0.1331E+01  0.3439E+02
  16.254  0.1328E+01  0.3440E+02
  16.264  0.1324E+01  0.3442E+02
  16.274  0.1320E+01  0.3443E+02
  16.284  0.1316E+01  0.3444E+02
  16.294  0.1311E+01  0.3446E+02
  16.304  0.1305E+01  0.3447E+02
  16.314  0.1299E+01  0.3448E+02
  16.324  0.1293E+01  0.3449E+02
  16.334  0.1287E+01  0.3451E+02
  16.344  0.1280E+01  0.3452E+02
  16.354  0.1273E+01  0.3453E+02
  16.364  0.1266E+01  0.3455E+02
  16.374  0.1259E+01  0.3456E+02
  16.384  0.1252E+01  0.3457E+02
  16.394  0.1245E+01  0.3458E+02
  16.404  0.1238E+01  0.3460E+02
  16.414  0.1231E+01  0.3461E+02
  16.424  0.1224E+01  0.3462E+02
  16.434  0.1218E+01  0.3463E+02
  16.444  0.1212E+01  0.3464E+02
  16.454  0.1206E+01  0.3466E+02
  16.464  0.1200E+01  0.3467E+02
  16.474  0.1195E+01  0.3468E+02
  16.484  0.1190E+01  0.3469E+02
  16.494  0.1186E+01  0.3470E+02
  16.504  0.1183E+01  0.3472E+02
  16.514  0.1179E+01  0.3473E+02
  16.524  0.1177E+01  0.3474E+02
  16.534  0.1175E+01  0.3475E+02
  16.544  0.1173E+01  0.3476E+02
  16.554  0.1172E+01  0.3477E+02
  16.564  0.1172E+01  0.3479E+02
  16.574  0.1173E+01  0.3480E+02
  16.584  0.1173E+01  0.3481E+02
  16.594  0.1175E+01  0.3482E+02
  16.604  0.1177E+01  0.3483E+02
  16.614  0.1180E+01  0.3484E+02
  16.624  0.1183E+01  0.3486E+02
  16.634  0.1187E+01  0.3487E+02
  16.644  0.1191E+01  0.3488E+02
  16.654  0.1195E+01  0.3489E+02
  16.664  0.1200E+01  0.3490E+02
  16.674  0.1206E+01  0.3492E+02
  16.684  0.1212E+01  0.3493E+02
  16.694  0.1218E+01  0.3494E+02
  16.704  0.1224E+01  0.3495E+02
  16.714  0.1230E+01  0.3497E+02
  16.724  0.1237E+01  0.3498E+02
  16.734  0.1244E+01  0.3499E+02
  16.744  0.1251E+01  0.3500E+02
  16.754  0.1258E+01  0.3502E+02
  16.764  0.1265E+01  0.3503E+02
  16.774  0.1272E+01  0.3504E+02
  16.784  0.1279E+01  0.3505E+02
  16.794  0.1286E+01  0.3507E+02
  16.804  0.1292E+01  0.3508E+02
  16.814  0.1299E+01  0.3509E+02
  16.824  0.1305E+01  0.3511E+02
  16.834  0.1311E+01  0.3512E+02
  16.844  0.1317E+01  0.3513E+02
  16.854  0.1323E+01  0.3514E+02
  16.864  0.1328E+01  0.3516E+02
  16.874  0.1333E+01  0.3517E+02
  16.884  0.1337E+01  0.3518E+02
  16.894  0.1341E+01  0.3520E+02
  16.904  0.1345E+01  0.3521E+02
  16.914  0.1349E+01  0.3523E+02
  16.924  0.1352E+01  0.3524E+02
  16.934  0.1355E+01  0.3525E+02
  16.944  0.1358E+01  0.3527E+02
  16.954  0.1360E+01  0.3528E+02
  16.964  0.1362E+01  0.3529E+02
  16.974  0.1364E+01  0.3531E+02
  16.984  0.1365E+01  0.3532E+02
  16.994  0.1366E+01  0.3533E+02
  17.004  0.1367E+01  0.3535E+02
  17.014  0.1368E+01  0.3536E+02
  17.024  0.1368E+01  0.3537E+02
  17.034  0.1368E+01  0.3539E+02
  17.044  0.1368E+01  0.3540E+02
  17.054  0.1368E+01  0.3542E+02
  17.064  0.1368E+01  0.3543E+02
  17.074  0.1367E+01  0.3544E+02
  17.084  0.1367E+01  0.3546E+02
  17.094  0.1366E+01  0.3547E+02
  17.104  0.1365E+01  0.3548E+02
  17.114  0.1364E+01  0.3550E+02
  17.124  0.1363E+01  0.3551E+02
  17.134  0.1361E+01  0.3553E+02
  17.144  0.1360E+01  0.3554E+02
  17.154  0.1358E+01  0.3555E+02
  17.164  0.1357E+01  0.3557E+02
  17.174  0.1355E+01  0.3558E+02
  17.184  0.1353E+01  0.3559E+02
  17.194  0.1351E+01  0.3561E+02
  17.204  0.1349E+01  0.3562E+02
  17.214  0.1346E+01  0.3563E+02
  17.224  0.1344E+01  0.3565E+02
  17.234  0.1341E+01  0.3566E+02
  17.244  0.1339E+01  0.3567E+02
  17.254  0.1336E+01  0.3569E+02
  17.264  0.1333E+01  0.3570E+02
  17.274  0.1331E+01  0.3571E+02
  17.284  0.1328E+01  0.3573E+02
  17.294  0.1325E+01  0.3574E+02
  17.304  0.1322E+01  0.3575E+02
  17.314  0.1319E+01  0.3577E+02
  17.324  0.1316E+01  0.3578E+02
  17.334  0.1312E+01  0.3579E+02
  17.344  0.1309E+01  0.3581E+02
  17.354  0.1306E+01  0.3582E+02
  17.364  0.1303E+01  0.3583E+02
  17.374  0.1300E+01  0.3585E+02
  17.384  0.1297E+01  0.3586E+02
  17.394  0.1294E+01  0.3587E+02
  17.404  0.1291E+01  0.3588E+02
  17.414  0.1288E+01  0.3590E+02
  17.424  0.1285E+01  0.3591E+02
  17.434  0.1282E+01  0.3592E+02
  17.444  0.1279E+01  0.3594E+02
  17.454  0.1276E+01  0.3595E+02
  17.464  0.1273E+01  0.3596E+02
  17.474  0.1270E+01  0.3597E+02
  17.484  0.1267E+01  0.3599E+02
  17.494  0.1263E+01  0.3600E+02
  17.504  0.1260E+01  0.3601E+02
  17.514  0.1257E+01  0.3602E+02
  17.524  0.1254E+01  0.3604E+02
  17.534  0.1251E+01  0.3605E+02
  17.544  0.1247E+01  0.3606E+02
  17.554  0.1244E+01  0.3607E+02
  17.564  0.1240E+01  0.3609E+02
  17.574  0.1237E+01  0.3610E+02
  17.584  0.1233E+01  0.3611E+02
  17.594  0.1229E+01  0.3612E+02
  17.604  0.1225E+01  0.3614E+02
  17.614  0.1221E+01  0.3615E+02
  17.624  0.1216E+01  0.3616E+02
  17.634  0.1212E+01  0.3617E+02
  17.644  0.1207E+01  0.3618E+02
  17.654  0.1203E+01  0.3620E+02
  17.664  0.1198E+01  0.3621E+02
  17.674  0.1193E+01  0.3622E+02
  17.684  0.1188E+01  0.3623E+02
  17.694  0.1184E+01  0.3624E+02
  17.704  0.1179E+01  0.3626E+02
  17.714  0.1174E+01  0.3627E+02
  17.724  0.1169E+01  0.3628E+02
  17.734  0.1164E+01  0.3629E+02
  17.744  0.1160E+01  0.3630E+02
  17.754  0.1155E+01  0.3631E+02
  17.764  0.1150E+01  0.3633E+02
  17.774  0.1146E+01  0.3634E+02
  17.784  0.1142E+01  0.3635E+02
  17.794  0.1137E+01  0.3636E+02
  17.804  0.1133E+01  0.3637E+02
  17.814  0.1130E+01  0.3638E+02
  17.824  0.1126E+01  0.3639E+02
  17.834  0.1123E+01  0.3640E+02
  17.844  0.1119E+01  0.3642E+02
  17.854  0.1116E+01  0.3643E+02
  17.864  0.1113E+01  0.3644E+02
  17.874  0.1111E+01  0.3645E+02
  17.884  0.1108E+01  0.3646E+02
  17.894  0.1106E+01  0.3647E+02
  17.904  0.1104E+01  0.3648E+02
  17.914  0.1102E+01  0.3649E+02
  17.924  0.1100E+01  0.3650E+02
  17.934  0.1098E+01  0.3652E+02
  17.944  0.1096E+01  0.3653E+02
  17.954  0.1095E+01  0.3654E+02
  17.964  0.1093E+01  0.3655E+02
  17.974  0.1092E+01  0.3656E+02
  17.984  0.1091E+01  0.3657E+02
  17.994  0.1090E+01  0.3658E+02
  18.004  0.1089E+01  0.3659E+02
  18.014  0.1088E+01  0.3660E+02
  18.024  0.1087E+01  0.3661E+02
  18.034  0.1086E+01  0.3662E+02
  18.044  0.1085E+01  0.3664E+02
  18.054  0.1084E+01  0.3665E+02
  18.064  0.1083E+01  0.3666E+02
  18.074  0.1082E+01  0.3667E+02
  18.084  0.1082E+01  0.3668E+02
  18.094  0.1081E+01  0.3669E+02
  18.104  0.1080E+01  0.3670E+02
  18.114  0.1080E+01  0.3671E+02
  18.124  0.1079E+01  0.3672E+02
  18.134  0.1078E+01  0.3673E+02
  18.144  0.1078E+01  0.3674E+02
  18.154  0.1077E+01  0.3675E+02
  18.164  0.1077E+01  0.3676E+02
  18.174  0.1077E+01  0.3678E+02
  18.184  0.1076E+01  0.3679E+02
  18.194  0.1076E+01  0.3680E+02
  18.204  0.1076E+01  0.3681E+02
  18.214  0.1076E+01  0.3682E+02
  18.224  0.1076E+01  0.3683E+02
  18.234  0.1076E+01  0.3684E+02
  18.244  0.1076E+01  0.3685E+02
  18.254  0.1076E+01  0.3686E+02
  18.264  0.1077E+01  0.3687E+02
  18.274  0.1077E+01  0.3688E+02
  18.284  0.1078E+01  0.3689E+02
  18.294  0.1079E+01  0.3690E+02
  18.304  0.1079E+01  0.3692E+02
  18.314  0.1080E+01  0.3693E+02
  18.324  0.1081E+01  0.3694E+02
  18.334  0.1082E+01  0.3695E+02
  18.344  0.1084E+01  0.3696E+02
  18.354  0.1085E+01  0.3697E+02
  18.364  0.1086E+01  0.3698E+02
  18.374  0.1088E+01  0.3699E+02
  18.384  0.1090E+01  0.3700E+02
  18.394  0.1091E+01  0.3701E+02
  18.404  0.1093E+01  0.3702E+02
  18.414  0.1095E+01  0.3704E+02
  18.424  0.1097E+01  0.3705E+02
  18.434  0.1099E+01  0.3706E+02
  18.444  0.1101E+01  0.3707E+02
  18.454  0.1103E+01  0.3708E+02
  18.464  0.1106E+01  0.3709E+02
  18.474  0.1108E+01  0.3710E+02
  18.484  0.1110E+01  0.3711E+02
  18.494  0.1113E+01  0.3712E+02
  18.504  0.1115E+01  0.3713E+02
  18.514  0.1118E+01  0.3715E+02
  18.524  0.1121E+01  0.3716E+02
  18.534  0.1124E+01  0.3717E+02
  18.544  0.1126E+01  0.3718E+02
  18.554  0.1129E+01  0.3719E+02
  18.564  0.1132E+01  0.3720E+02
  18.574  0.1135E+01  0.3721E+02
  18.584  0.1138E+01  0.3722E+02
  18.594  0.1141E+01  0.3724E+02
  18.604  0.1144E+01  0.3725E+02
  18.614  0.1147E+01  0.3726E+02
  18.624  0.1150E+01  0.3727E+02
  18.634  0.1153E+01  0.3728E+02
  18.644  0.1156E+01  0.3729E+02
  18.654  0.1159E+01  0.3731E+02
  18.664  0.1162E+01  0.3732E+02
  18.674  0.1164E+01  0.3733E+02
  18.684  0.1167E+01  0.3734E+02
  18.694  0.1170E+01  0.3735E+02
  18.704  0.1172E+01  0.3736E+02
  18.714  0.1174E+01  0.3738E+02
  18.724  0.1176E+01  0.3739E+02
  18.734  0.1178E+01  0.3740E+02
  18.744  0.1180E+01  0.3741E+02
  18.754  0.1181E+01  0.3742E+02
  18.764  0.1183E+01  0.3743E+02
  18.774  0.1184E+01  0.3745E+02
  18.784  0.1185E+01  0.3746E+02
  18.794  0.1185E+01  0.3747E+02
  18.804  0.1185E+01  0.3748E+02
  18.814  0.1185E+01  0.3749E+02
  18.824  0.1185E+01  0.3751E+02
  18.834  0.1185E+01  0.3752E+02
  18.844  0.1184E+01  0.3753E+02
  18.854  0.1183E+01  0.3754E+02
  18.864  0.1182E+01  0.3755E+02
  18.874  0.1181E+01  0.3756E+02
  18.884  0.1179E+01  0.3758E+02
  18.894  0.1177E+01  0.3759E+02
  18.904  0.1175E+01  0.3760E+02
  18.914  0.1173E+01  0.3761E+02
  18.924  0.1171E+01  0.3762E+02
  18.934  0.1169E+01  0.3764E+02
  18.944  0.1167E+01  0.3765E+02
  18.954  0.1164E+01  0.3766E+02
  18.964  0.1162E+01  0.3767E+02
  18.974  0.1160E+01  0.3768E+02
  18.984  0.1157E+01  0.3769E+02
  18.994  0.1155E+01  0.3770E+02
  19.004  0.1153E+01  0.3772E+02
  19.014  0.1151E+01  0.3773E+02
  19.024  0.1149E+01  0.3774E+02
  19.034  0.1147E+01  0.3775E+02
  19.044  0.1145E+01  0.3776E+02
  19.054  0.1144E+01  0.3777E+02
  19.064  0.1142E+01  0.3779E+02
  19.074  0.1141E+01  0.3780E+02
  19.084  0.1140E+01  0.3781E+02
  19.094  0.1140E+01  0.3782E+02
  19.104  0.1139E+01  0.3783E+02
  19.114  0.1139E+01  0.3784E+02
  19.124  0.1139E+01  0.3785E+02
  19.134  0.1139E+01  0.3786E+02
  19.144  0.1139E+01  0.3788E+02
  19.154  0.1140E+01  0.3789E+02
  19.164  0.1141E+01  0.3790E+02
  19.174  0.1142E+01  0.3791E+02
  19.184  0.1144E+01  0.3792E+02
  19.194  0.1145E+01  0.3793E+02
  19.204  0.1147E+01  0.3794E+02
  19.214  0.1149E+01  0.3796E+02
  19.224  0.1152E+01  0.3797E+02
  19.234  0.1154E+01  0.3798E+02
  19.244  0.1157E+01  0.3799E+02
  19.254  0.1160E+01  0.3800E+02
  19.264  0.1164E+01  0.3801E+02
  19.274  0.1167E+01  0.3803E+02
  19.284  0.1171E+01  0.3804E+02
  19.294  0.1175E+01  0.3805E+02
  19.304  0.1180E+01  0.3806E+02
  19.314  0.1184E+01  0.3807E+02
  19.324  0.1189E+01  0.3808E+02
  19.334  0.1195E+01  0.3810E+02
  19.344  0.1200E+01  0.3811E+02
  19.354  0.1206E+01  0.3812E+02
  19.364  0.1212E+01  0.3813E+02
  19.374  0.1218E+01  0.3815E+02
  19.384  0.1224E+01  0.3816E+02
  19.394  0.1231E+01  0.3817E+02
  19.404  0.1238E+01  0.3818E+02
  19.414  0.1245E+01  0.3819E+02
  19.424  0.1252E+01  0.3821E+02
  19.434  0.1259E+01  0.3822E+02
  19.444  0.1267E+01  0.3823E+02
  19.454  0.1274E+01  0.3825E+02
  19.464  0.1282E+01  0.3826E+02
  19.474  0.1289E+01  0.3827E+02
  19.484  0.1297E+01  0.3828E+02
  19.494  0.1304E+01  0.3830E+02
  19.504  0.1311E+01  0.3831E+02
  19.514  0.1318E+01  0.3832E+02
  19.524  0.1325E+01  0.3834E+02
  19.534  0.1331E+01  0.3835E+02
  19.544  0.1337E+01  0.3836E+02
  19.554  0.1343E+01  0.3838E+02
  19.564  0.1348E+01  0.3839E+02
  19.574  0.1353E+01  0.3840E+02
  19.584  0.1358E+01  0.3842E+02
  19.594  0.1362E+01  0.3843E+02
  19.604  0.1365E+01  0.3844E+02
  19.614  0.1368E+01  0.3846E+02
  19.624  0.1370E+01  0.3847E+02
  19.634  0.1372E+01  0.3849E+02
  19.644  0.1373E+01  0.3850E+02
  19.654  0.1373E+01  0.3851E+02
  19.664  0.1373E+01  0.3853E+02
  19.674  0.1372E+01  0.3854E+02
  19.684  0.1371E+01  0.3855E+02
  19.694  0.1369E+01  0.3857E+02
  19.704  0.1366E+01  0.3858E+02
  19.714  0.1363E+01  0.3859E+02
  19.724  0.1360E+01  0.3861E+02
  19.734  0.1356E+01  0.3862E+02
  19.744  0.1351E+01  0.3864E+02
  19.754  0.1347E+01  0.3865E+02
  19.764  0.1341E+01  0.3866E+02
  19.774  0.1336E+01  0.3868E+02
  19.784  0.1331E+01  0.3869E+02
  19.794  0.1325E+01  0.3870E+02
  19.804  0.1319E+01  0.3872E+02
  19.814  0.1313E+01  0.3873E+02
  19.824  0.1307E+01  0.3874E+02
  19.834  0.1301E+01  0.3875E+02
  19.844  0.1295E+01  0.3877E+02
  19.854  0.1289E+01  0.3878E+02
  19.864  0.1284E+01  0.3879E+02
  19.874  0.1279E+01  0.3881E+02
  19.884  0.1273E+01  0.3882E+02
  19.894  0.1269E+01  0.3883E+02
  19.904  0.1264E+01  0.3884E+02
  19.914  0.1260E+01  0.3886E+02
  19.924  0.1256E+01  0.3887E+02
  19.934  0.1252E+01  0.3888E+02
  19.944  0.1249E+01  0.3889E+02
  19.954  0.1246E+01  0.3891E+02
  19.964  0.1244E+01  0.3892E+02
  19.974  0.1242E+01  0.3893E+02
  19.984  0.1240E+01  0.3894E+02
  19.994  0.1239E+01  0.3896E+02
  20.004  0.1238E+01  0.3897E+02
  20.014  0.1238E+01  0.3898E+02
  20.024  0.1238E+01  0.3899E+02
  20.034  0.1238E+01  0.3901E+02
  20.044  0.1239E+01  0.3902E+02
  20.054  0.1240E+01  0.3903E+02
  20.064  0.1241E+01  0.3904E+02
  20.074  0.1243E+01  0.3906E+02
  20.084  0.1245E+01  0.3907E+02
  20.094  0.1247E+01  0.3908E+02
  20.104  0.1249E+01  0.3909E+02
  20.114  0.1252E+01  0.3911E+02
  20.124  0.1254E+01  0.3912E+02
  20.134  0.1257E+01  0.3913E+02
  20.144  0.1260E+01  0.3914E+02
  20.154  0.1264E+01  0.3916E+02
  20.164  0.1267E+01  0.3917E+02
  20.174  0.1270E+01  0.3918E+02
  20.184  0.1274E+01  0.3919E+02
  20.194  0.1277E+01  0.3921E+02
  20.204  0.1281E+01  0.3922E+02
  20.214  0.1285E+01  0.3923E+02
  20.224  0.1288E+01  0.3925E+02
  20.234  0.1292E+01  0.3926E+02
  20.244  0.1296E+01  0.3927E+02
  20.254  0.1299E+01  0.3928E+02
  20.264  0.1303E+01  0.3930E+02
  20.274  0.1306E+01  0.3931E+02
  20.284  0.1310E+01  0.3932E+02
  20.294  0.1313E+01  0.3934E+02
  20.304  0.1316E+01  0.3935E+02
  20.314  0.1320E+01  0.3936E+02
  20.324  0.1323E+01  0.3938E+02
  20.334  0.1326E+01  0.3939E+02
  20.344  0.1329E+01  0.3940E+02
  20.354  0.1332E+01  0.3942E+02
  20.364  0.1334E+01  0.3943E+02
  20.374  0.1337E+01  0.3944E+02
  20.384  0.1339E+01  0.3946E+02
  20.394  0.1342E+01  0.3947E+02
  20.404  0.1344E+01  0.3948E+02
  20.414  0.1347E+01  0.3950E+02
  20.424  0.1349E+01  0.3951E+02
  20.434  0.1351E+01  0.3952E+02
  20.444  0.1353E+01  0.3954E+02
  20.454  0.1355E+01  0.3955E+02
  20.464  0.1358E+01  0.3956E+02
  20.474  0.1360E+01  0.3958E+02
  20.484  0.1362E+01  0.3959E+02
  20.494  0.1365E+01  0.3961E+02
  20.504  0.1368E+01  0.3962E+02
  20.514  0.1370E+01  0.3963E+02
  20.524  0.1373E+01  0.3965E+02
  20.534  0.1376E+01  0.3966E+02
  20.544  0.1379E+01  0.3967E+02
  20.554  0.1383E+01  0.3969E+02
  20.564  0.1387E+01  0.3970E+02
  20.574  0.1391E+01  0.3972E+02
  20.584  0.1395E+01  0.3973E+02
  20.594  0.1399E+01  0.3974E+02
  20.604  0.1404E+01  0.3976E+02
  20.614  0.1409E+01  0.3977E+02
  20.624  0.1415E+01  0.3979E+02
  20.634  0.1420E+01  0.3980E+02
  20.644  0.1426E+01  0.3981E+02
  20.654  0.1432E+01  0.3983E+02
  20.664  0.1439E+01  0.3984E+02
  20.674  0.1446E+01  0.3986E+02
  20.684  0.1452E+01  0.3987E+02
  20.694  0.1460E+01  0.3989E+02
  20.704  0.1467E+01  0.3990E+02
  20.714  0.1474E+01  0.3992E+02
  20.724  0.1482E+01  0.3993E+02
  20.734  0.1489E+01  0.3995E+02
  20.744  0.1497E+01  0.3996E+02
  20.754  0.1505E+01  0.3998E+02
  20.764  0.1513E+01  0.3999E+02
  20.774  0.1520E+01  0.4001E+02
  20.784  0.1528E+01  0.4002E+02
  20.794  0.1535E+01  0.4004E+02
  20.804  0.1543E+01  0.4005E+02
  20.814  0.1550E+01  0.4007E+02
  20.824  0.1557E+01  0.4008E+02
  20.834  0.1564E+01  0.4010E+02
  20.844  0.1570E+01  0.4011E+02
  20.854  0.1576E+01  0.4013E+02
  20.864  0.1582E+01  0.4015E+02
  20.874  0.1588E+01  0.4016E+02
  20.884  0.1593E+01  0.4018E+02
  20.894  0.1598E+01  0.4019E+02
  20.904  0.1603E+01  0.4021E+02
  20.914  0.1607E+01  0.4023E+02
  20.924  0.1611E+01  0.4024E+02
  20.934  0.1615E+01  0.4026E+02
  20.944  0.1618E+01  0.4027E+02
  20.954  0.1621E+01  0.4029E+02
  20.964  0.1623E+01  0.4031E+02
  20.974  0.1626E+01  0.4032E+02
  20.984  0.1628E+01  0.4034E+02
  20.994  0.1630E+01  0.4036E+02
  21.004  0.1631E+01  0.4037E+02
  21.014  0.1632E+01  0.4039E+02
  21.024  0.1634E+01  0.4040E+02
  21.034  0.1634E+01  0.4042E+02
  21.044  0.1635E+01  0.4044E+02
  21.054  0.1636E+01  0.4045E+02
  21.064  0.1636E+01  0.4047E+02
  21.074  0.1637E+01  0.4049E+02
  21.084  0.1637E+01  0.4050E+02
  21.094  0.1638E+01  0.4052E+02
  21.104  0.1638E+01  0.4054E+02
  21.114  0.1638E+01  0.4055E+02
  21.124  0.1639E+01  0.4057E+02
  21.134  0.1639E+01  0.4058E+02
  21.144  0.1639E+01  0.4060E+02
  21.154  0.1640E+01  0.4062E+02
  21.164  0.1640E+01  0.4063E+02
  21.174  0.1641E+01  0.4065E+02
  21.184  0.1642E+01  0.4067E+02
  21.194  0.1642E+01  0.4068E+02
  21.204  0.1643E+01  0.4070E+02
  21.214  0.1644E+01  0.4072E+02
  21.224  0.1645E+01  0.4073E+02
  21.234  0.1646E+01  0.4075E+02
  21.244  0.1647E+01  0.4077E+02
  21.254  0.1648E+01  0.4078E+02
  21.264  0.1649E+01  0.4080E+02
  21.274  0.1651E+01  0.4081E+02
  21.284  0.1652E+01  0.4083E+02
  21.294  0.1653E+01  0.4085E+02
  21.304  0.1654E+01  0.4086E+02
  21.314  0.1655E+01  0.4088E+02
  21.324  0.1656E+01  0.4090E+02
  21.334  0.1656E+01  0.4091E+02
  21.344  0.1657E+01  0.4093E+02
  21.354  0.1658E+01  0.4095E+02
  21.364  0.1658E+01  0.4096E+02
  21.374  0.1658E+01  0.4098E+02
  21.384  0.1658E+01  0.4100E+02
  21.394  0.1658E+01  0.4101E+02
  21.404  0.1657E+01  0.4103E+02
  21.414  0.1657E+01  0.4105E+02
  21.424  0.1656E+01  0.4106E+02
  21.434  0.1655E+01  0.4108E+02
  21.444  0.1653E+01  0.4110E+02
  21.454  0.1652E+01  0.4111E+02
  21.464  0.1650E+01  0.4113E+02
  21.474  0.1647E+01  0.4115E+02
  21.484  0.1645E+01  0.4116E+02
  21.494  0.1642E+01  0.4118E+02
  21.504  0.1639E+01  0.4119E+02
  21.514  0.1636E+01  0.4121E+02
  21.524  0.1633E+01  0.4123E+02
  21.534  0.1629E+01  0.4124E+02
  21.544  0.1625E+01  0.4126E+02
  21.554  0.1621E+01  0.4128E+02
  21.564  0.1617E+01  0.4129E+02
  21.574  0.1612E+01  0.4131E+02
  21.584  0.1607E+01  0.4132E+02
  21.594  0.1602E+01  0.4134E+02
  21.604  0.1597E+01  0.4136E+02
  21.614  0.1592E+01  0.4137E+02
  21.624  0.1587E+01  0.4139E+02
  21.634  0.1581E+01  0.4140E+02
  21.644  0.1575E+01  0.4142E+02
  21.654  0.1570E+01  0.4144E+02
  21.664  0.1564E+01  0.4145E+02
  21.674  0.1558E+01  0.4147E+02
  21.684  0.1552E+01  0.4148E+02
  21.694  0.1546E+01  0.4150E+02
  21.704  0.1540E+01  0.4151E+02
  21.714  0.1534E+01  0.4153E+02
  21.724  0.1529E+01  0.4154E+02
  21.734  0.1523E+01  0.4156E+02
  21.744  0.1517E+01  0.4157E+02
  21.754  0.1512E+01  0.4159E+02
  21.764  0.1506E+01  0.4160E+02
  21.774  0.1501E+01  0.4162E+02
  21.784  0.1496E+01  0.4163E+02
  21.794  0.1491E+01  0.4165E+02
  21.804  0.1487E+01  0.4166E+02
  21.814  0.1483E+01  0.4168E+02
  21.824  0.1479E+01  0.4169E+02
  21.834  0.1476E+01  0.4171E+02
  21.844  0.1473E+01  0.4172E+02
  21.854  0.1471E+01  0.4174E+02
  21.864  0.1469E+01  0.4175E+02
  21.874  0.1468E+01  0.4177E+02
  21.884  0.1467E+01  0.4178E+02
  21.894  0.1467E+01  0.4180E+02
  21.904  0.1468E+01  0.4181E+02
  21.914  0.1469E+01  0.4183E+02
  21.924  0.1471E+01  0.4184E+02
  21.934  0.1474E+01  0.4186E+02
  21.944  0.1477E+01  0.4187E+02
  21.954  0.1481E+01  0.4189E+02
  21.964  0.1486E+01  0.4190E+02
  21.974  0.1491E+01  0.4192E+02
  21.984  0.1497E+01  0.4193E+02
  21.994  0.1504E+01  0.4195E+02
  22.004  0.1511E+01  0.4196E+02
  22.014  0.1519E+01  0.4198E+02
  22.024  0.1527E+01  0.4199E+02
  22.034  0.1536E+01  0.4201E+02
  22.044  0.1546E+01  0.4202E+02
  22.054  0.1556E+01  0.4204E+02
  22.064  0.1566E+01  0.4205E+02
  22.074  0.1577E+01  0.4207E+02
  22.084  0.1587E+01  0.4208E+02
  22.094  0.1599E+01  0.4210E+02
  22.104  0.1610E+01  0.4212E+02
  22.114  0.1621E+01  0.4213E+02
  22.124  0.1632E+01  0.4215E+02
  22.134  0.1644E+01  0.4217E+02
  22.144  0.1655E+01  0.4218E+02
  22.154  0.1666E+01  0.4220E+02
  22.164  0.1677E+01  0.4222E+02
  22.174  0.1687E+01  0.4223E+02
  22.184  0.1697E+01  0.4225E+02
  22.194  0.1707E+01  0.4227E+02
  22.204  0.1716E+01  0.4228E+02
  22.214  0.1724E+01  0.4230E+02
  22.224  0.1732E+01  0.4232E+02
  22.234  0.1740E+01  0.4234E+02
  22.244  0.1746E+01  0.4235E+02
  22.254  0.1752E+01  0.4237E+02
  22.264  0.1758E+01  0.4239E+02
  22.274  0.1762E+01  0.4241E+02
  22.284  0.1766E+01  0.4242E+02
  22.294  0.1769E+01  0.4244E+02
  22.304  0.1772E+01  0.4246E+02
  22.314  0.1773E+01  0.4248E+02
  22.324  0.1774E+01  0.4249E+02
  22.334  0.1774E+01  0.4251E+02
  22.344  0.1774E+01  0.4253E+02
  22.354  0.1773E+01  0.4255E+02
  22.364  0.1771E+01  0.4256E+02
  22.374  0.1769E+01  0.4258E+02
  22.384  0.1766E+01  0.4260E+02
  22.394  0.1763E+01  0.4262E+02
  22.404  0.1759E+01  0.4264E+02
  22.414  0.1755E+01  0.4265E+02
  22.424  0.1751E+01  0.4267E+02
  22.434  0.1746E+01  0.4269E+02
  22.444  0.1741E+01  0.4271E+02
  22.454  0.1736E+01  0.4272E+02
  22.464  0.1731E+01  0.4274E+02
  22.474  0.1726E+01  0.4276E+02
  22.484  0.1720E+01  0.4277E+02
  22.494  0.1715E+01  0.4279E+02
  22.504  0.1710E+01  0.4281E+02
  22.514  0.1705E+01  0.4283E+02
  22.524  0.1699E+01  0.4284E+02
  22.534  0.1694E+01  0.4286E+02
  22.544  0.1690E+01  0.4288E+02
  22.554  0.1685E+01  0.4289E+02
  22.564  0.1681E+01  0.4291E+02
  22.574  0.1677E+01  0.4293E+02
  22.584  0.1673E+01  0.4294E+02
  22.594  0.1670E+01  0.4296E+02
  22.604  0.1667E+01  0.4298E+02
  22.614  0.1664E+01  0.4299E+02
  22.624  0.1661E+01  0.4301E+02
  22.634  0.1659E+01  0.4303E+02
  22.644  0.1657E+01  0.4304E+02
  22.654  0.1656E+01  0.4306E+02
  22.664  0.1654E+01  0.4308E+02
  22.674  0.1653E+01  0.4309E+02
  22.684  0.1653E+01  0.4311E+02
  22.694  0.1652E+01  0.4313E+02
  22.704  0.1652E+01  0.4314E+02
  22.714  0.1652E+01  0.4316E+02
  22.724  0.1652E+01  0.4318E+02
  22.734  0.1653E+01  0.4319E+02
  22.744  0.1653E+01  0.4321E+02
  22.754  0.1654E+01  0.4323E+02
  22.764  0.1655E+01  0.4324E+02
  22.774  0.1656E+01  0.4326E+02
  22.784  0.1657E+01  0.4328E+02
  22.794  0.1658E+01  0.4329E+02
  22.804  0.1660E+01  0.4331E+02
  22.814  0.1661E+01  0.4333E+02
  22.824  0.1662E+01  0.4334E+02
  22.834  0.1663E+01  0.4336E+02
  22.844  0.1664E+01  0.4337E+02
  22.854  0.1665E+01  0.4339E+02
  22.864  0.1666E+01  0.4341E+02
  22.874  0.1667E+01  0.4342E+02
  22.884  0.1667E+01  0.4344E+02
  22.894  0.1668E+01  0.4346E+02
  22.904  0.1668E+01  0.4347E+02
  22.914  0.1668E+01  0.4349E+02
  22.924  0.1668E+01  0.4351E+02
  22.934  0.1667E+01  0.4352E+02
  22.944  0.1667E+01  0.4354E+02
  22.954  0.1666E+01  0.4356E+02
  22.964  0.1665E+01  0.4357E+02
  22.974  0.1663E+01  0.4359E+02
  22.984  0.1662E+01  0.4361E+02
  22.994  0.1660E+01  0.4362E+02
  23.004  0.1659E+01  0.4364E+02
  23.014  0.1657E+01  0.4366E+02
  23.024  0.1655E+01  0.4367E+02
  23.034  0.1652E+01  0.4369E+02
  23.044  0.1650E+01  0.4371E+02
  23.054  0.1648E+01  0.4372E+02
  23.064  0.1645E+01  0.4374E+02
  23.074  0.1643E+01  0.4376E+02
  23.084  0.1641E+01  0.4377E+02
  23.094  0.1638E+01  0.4379E+02
  23.104  0.1636E+01  0.4381E+02
  23.114  0.1634E+01  0.4382E+02
  23.124  0.1632E+01  0.4384E+02
  23.134  0.1631E+01  0.4386E+02
  23.144  0.1629E+01  0.4387E+02
  23.154  0.1628E+01  0.4389E+02
  23.164  0.1627E+01  0.4390E+02
  23.174  0.1626E+01  0.4392E+02
  23.184  0.1626E+01  0.4394E+02
  23.194  0.1626E+01  0.4395E+02
  23.204  0.1626E+01  0.4397E+02
  23.214  0.1626E+01  0.4399E+02
  23.224  0.1627E+01  0.4400E+02
  23.234  0.1628E+01  0.4402E+02
  23.244  0.1630E+01  0.4403E+02
  23.254  0.1632E+01  0.4405E+02
  23.264  0.1634E+01  0.4407E+02
  23.274  0.1636E+01  0.4408E+02
  23.284  0.1639E+01  0.4410E+02
  23.294  0.1642E+01  0.4412E+02
  23.304  0.1645E+01  0.4413E+02
  23.314  0.1649E+01  0.4415E+02
  23.324  0.1653E+01  0.4417E+02
  23.334  0.1657E+01  0.4418E+02
  23.344  0.1661E+01  0.4420E+02
  23.354  0.1665E+01  0.4422E+02
  23.364  0.1670E+01  0.4423E+02
  23.374  0.1674E+01  0.4425E+02
  23.384  0.1679E+01  0.4427E+02
  23.394  0.1684E+01  0.4428E+02
  23.404  0.1689E+01  0.4430E+02
  23.414  0.1694E+01  0.4432E+02
  23.424  0.1698E+01  0.4433E+02
  23.434  0.1703E+01  0.4435E+02
  23.444  0.1708E+01  0.4437E+02
  23.454  0.1713E+01  0.4438E+02
  23.464  0.1718E+01  0.4440E+02
  23.474  0.1722E+01  0.4442E+02
  23.484  0.1727E+01  0.4444E+02
  23.494  0.1731E+01  0.4445E+02
  23.504  0.1736E+01  0.4447E+02
  23.514  0.1740E+01  0.4449E+02
  23.524  0.1744E+01  0.4451E+02
  23.534  0.1748E+01  0.4452E+02
  23.544  0.1752E+01  0.4454E+02
  23.554  0.1756E+01  0.4456E+02
  23.564  0.1760E+01  0.4458E+02
  23.574  0.1763E+01  0.4459E+02
  23.584  0.1767E+01  0.4461E+02
  23.594  0.1770E+01  0.4463E+02
  23.604  0.1773E+01  0.4465E+02
  23.614  0.1777E+01  0.4466E+02
  23.624  0.1780E+01  0.4468E+02
  23.634  0.1783E+01  0.4470E+02
  23.644  0.1785E+01  0.4472E+02
  23.654  0.1788E+01  0.4474E+02
  23.664  0.1791E+01  0.4475E+02
  23.674  0.1794E+01  0.4477E+02
  23.684  0.1796E+01  0.4479E+02
  23.694  0.1799E+01  0.4481E+02
  23.704  0.1801E+01  0.4483E+02
  23.714  0.1803E+01  0.4484E+02
  23.724  0.1806E+01  0.4486E+02
  23.734  0.1808E+01  0.4488E+02
  23.744  0.1810E+01  0.4490E+02
  23.754  0.1812E+01  0.4492E+02
  23.764  0.1814E+01  0.4493E+02
  23.774  0.1815E+01  0.4495E+02
  23.784  0.1817E+01  0.4497E+02
  23.794  0.1819E+01  0.4499E+02
  23.804  0.1820E+01  0.4501E+02
  23.814  0.1821E+01  0.4502E+02
  23.824  0.1822E+01  0.4504E+02
  23.834  0.1824E+01  0.4506E+02
  23.844  0.1824E+01  0.4508E+02
  23.854  0.1825E+01  0.4510E+02
  23.864  0.1826E+01  0.4512E+02
  23.874  0.1826E+01  0.4513E+02
  23.884  0.1827E+01  0.4515E+02
  23.894  0.1827E+01  0.4517E+02
  23.904  0.1827E+01  0.4519E+02
  23.914  0.1827E+01  0.4521E+02
  23.924  0.1827E+01  0.4523E+02
  23.934  0.1826E+01  0.4524E+02
  23.944  0.1826E+01  0.4526E+02
  23.954  0.1825E+01  0.4528E+02
  23.964  0.1824E+01  0.4530E+02
  23.974  0.1823E+01  0.4532E+02
  23.984  0.1822E+01  0.4534E+02
  23.994  0.1821E+01  0.4535E+02
  24.004  0.1819E+01  0.4537E+02
  24.014  0.1818E+01  0.4539E+02
  24.024  0.1816E+01  0.4541E+02
  24.034  0.1814E+01  0.4543E+02
  24.044  0.1812E+01  0.4544E+02
  24.054  0.1810E+01  0.4546E+02
  24.064  0.1807E+01  0.4548E+02
  24.074  0.1805E+01  0.4550E+02
  24.084  0.1802E+01  0.4552E+02
  24.094  0.1800E+01  0.4553E+02
  24.104  0.1797E+01  0.4555E+02
  24.114  0.1794E+01  0.4557E+02
  24.124  0.1791E+01  0.4559E+02
  24.134  0.1787E+01  0.4561E+02
  24.144  0.1784E+01  0.4562E+02
  24.154  0.1781E+01  0.4564E+02
  24.164  0.1777E+01  0.4566E+02
  24.174  0.1774E+01  0.4568E+02
  24.184  0.1770E+01  0.4569E+02
  24.194  0.1766E+01  0.4571E+02
  24.204  0.1762E+01  0.4573E+02
  24.214  0.1758E+01  0.4575E+02
  24.224  0.1754E+01  0.4577E+02
  24.234  0.1750E+01  0.4578E+02
  24.244  0.1746E+01  0.4580E+02
  24.254  0.1741E+01  0.4582E+02
  24.264  0.1736E+01  0.4583E+02
  24.274  0.1732E+01  0.4585E+02
  24.284  0.1727E+01  0.4587E+02
  24.294  0.1722E+01  0.4589E+02
  24.304  0.1716E+01  0.4590E+02
  24.314  0.1711E+01  0.4592E+02
  24.324  0.1705E+01  0.4594E+02
  24.334  0.1699E+01  0.4596E+02
  24.344  0.1693E+01  0.4597E+02
  24.354  0.1687E+01  0.4599E+02
  24.364  0.1681E+01  0.4601E+02
  24.374  0.1674E+01  0.4602E+02
  24.384  0.1667E+01  0.4604E+02
  24.394  0.1659E+01  0.4606E+02
  24.404  0.1652E+01  0.4607E+02
  24.414  0.1644E+01  0.4609E+02
  24.424  0.1636E+01  0.4610E+02
  24.434  0.1627E+01  0.4612E+02
  24.444  0.1619E+01  0.4614E+02
  24.454  0.1610E+01  0.4615E+02
  24.464  0.1600E+01  0.4617E+02
  24.474  0.1591E+01  0.4619E+02
  24.484  0.1581E+01  0.4620E+02
  24.494  0.1571E+01  0.4622E+02
  24.504  0.1561E+01  0.4623E+02
  24.514  0.1550E+01  0.4625E+02
  24.524  0.1539E+01  0.4626E+02
  24.534  0.1528E+01  0.4628E+02
  24.544  0.1517E+01  0.4629E+02
  24.554  0.1506E+01  0.4631E+02
  24.564  0.1495E+01  0.4632E+02
  24.574  0.1483E+01  0.4634E+02
  24.584  0.1471E+01  0.4635E+02
  24.594  0.1460E+01  0.4637E+02
  24.604  0.1448E+01  0.4638E+02
  24.614  0.1436E+01  0.4640E+02
  24.624  0.1424E+01  0.4641E+02
  24.634  0.1412E+01  0.4643E+02
  24.644  0.1400E+01  0.4644E+02
  24.654  0.1388E+01  0.4645E+02
  24.664  0.1377E+01  0.4647E+02
  24.674  0.1365E+01  0.4648E+02
  24.684  0.1353E+01  0.4649E+02
  24.694  0.1342E+01  0.4651E+02
  24.704  0.1330E+01  0.4652E+02
  24.714  0.1319E+01  0.4653E+02
  24.724  0.1308E+01  0.4655E+02
  24.734  0.1297E+01  0.4656E+02
  24.744  0.1286E+01  0.4657E+02
  24.754  0.1275E+01  0.4659E+02
  24.764  0.1265E+01  0.4660E+02
  24.774  0.1255E+01  0.4661E+02
  24.784  0.1245E+01  0.4662E+02
  24.794  0.1235E+01  0.4664E+02
  24.804  0.1225E+01  0.4665E+02
  24.814  0.1216E+01  0.4666E+02
  24.824  0.1206E+01  0.4667E+02
  24.834  0.1197E+01  0.4668E+02
  24.844  0.1189E+01  0.4670E+02
  24.854  0.1180E+01  0.4671E+02
  24.864  0.1172E+01  0.4672E+02
  24.874  0.1164E+01  0.4673E+02
  24.884  0.1156E+01  0.4674E+02
  24.894  0.1148E+01  0.4675E+02
  24.904  0.1141E+01  0.4677E+02
  24.914  0.1134E+01  0.4678E+02
  24.924  0.1127E+01  0.4679E+02
  24.934  0.1121E+01  0.4680E+02
  24.944  0.1114E+01  0.4681E+02
  24.954  0.1108E+01  0.4682E+02
  24.964  0.1103E+01  0.4683E+02
  24.974  0.1097E+01  0.4684E+02
  24.984  0.1092E+01  0.4685E+02
  24.994  0.1086E+01  0.4687E+02
  25.004  0.1081E+01  0.4688E+02
  25.014  0.1077E+01  0.4689E+02
  25.024  0.1072E+01  0.4690E+02
  25.034  0.1068E+01  0.4691E+02
  25.044  0.1064E+01  0.4692E+02
  25.054  0.1059E+01  0.4693E+02
  25.064  0.1055E+01  0.4694E+02
  25.074  0.1052E+01  0.4695E+02
  25.084  0.1048E+01  0.4696E+02
  25.094  0.1044E+01  0.4697E+02
  25.104  0.1041E+01  0.4698E+02
  25.114  0.1037E+01  0.4699E+02
  25.124  0.1033E+01  0.4700E+02
  25.134  0.1030E+01  0.4701E+02
  25.144  0.1026E+01  0.4702E+02
  25.154  0.1023E+01  0.4703E+02
  25.164  0.1019E+01  0.4704E+02
  25.174  0.1015E+01  0.4705E+02
  25.184  0.1011E+01  0.4706E+02
  25.194  0.1007E+01  0.4707E+02
  25.204  0.1003E+01  0.4708E+02
  25.214  0.9987E+00  0.4709E+02
  25.224  0.9942E+00  0.4710E+02
  25.234  0.9895E+00  0.4711E+02
  25.244  0.9846E+00  0.4712E+02
  25.254  0.9795E+00  0.4713E+02
  25.264  0.9741E+00  0.4714E+02
  25.274  0.9686E+00  0.4715E+02
  25.284  0.9627E+00  0.4716E+02
  25.294  0.9567E+00  0.4717E+02
  25.304  0.9504E+00  0.4718E+02
  25.314  0.9438E+00  0.4719E+02
  25.324  0.9370E+00  0.4720E+02
  25.334  0.9300E+00  0.4721E+02
  25.344  0.9227E+00  0.4722E+02
  25.354  0.9152E+00  0.4723E+02
  25.364  0.9074E+00  0.4724E+02
  25.374  0.8994E+00  0.4725E+02
  25.384  0.8913E+00  0.4726E+02
  25.394  0.8829E+00  0.4726E+02
  25.404  0.8744E+00  0.4727E+02
  25.414  0.8657E+00  0.4728E+02
  25.424  0.8569E+00  0.4729E+02
  25.434  0.8479E+00  0.4730E+02
  25.444  0.8389E+00  0.4731E+02
  25.454  0.8297E+00  0.4732E+02
  25.464  0.8206E+00  0.4732E+02
  25.474  0.8113E+00  0.4733E+02
  25.484  0.8021E+00  0.4734E+02
  25.494  0.7929E+00  0.4735E+02
  25.504  0.7837E+00  0.4736E+02
  25.514  0.7746E+00  0.4736E+02
  25.524  0.7655E+00  0.4737E+02
  25.534  0.7566E+00  0.4738E+02
  25.544  0.7477E+00  0.4739E+02
  25.554  0.7390E+00  0.4739E+02
  25.564  0.7305E+00  0.4740E+02
  25.574  0.7221E+00  0.4741E+02
  25.584  0.7138E+00  0.4741E+02
  25.594  0.7058E+00  0.4742E+02
  25.604  0.6979E+00  0.4743E+02
  25.614  0.6902E+00  0.4744E+02
  25.624  0.6827E+00  0.4744E+02
  25.634  0.6755E+00  0.4745E+02
  25.644  0.6684E+00  0.4746E+02
  25.654  0.6615E+00  0.4746E+02
  25.664  0.6547E+00  0.4747E+02
  25.674  0.6482E+00  0.4748E+02
  25.684  0.6418E+00  0.4748E+02
  25.694  0.6356E+00  0.4749E+02
  25.704  0.6295E+00  0.4749E+02
  25.714  0.6236E+00  0.4750E+02
  25.724  0.6178E+00  0.4751E+02
  25.734  0.6121E+00  0.4751E+02
  25.744  0.6065E+00  0.4752E+02
  25.754  0.6010E+00  0.4753E+02
  25.764  0.5955E+00  0.4753E+02
  25.774  0.5901E+00  0.4754E+02
  25.784  0.5847E+00  0.4754E+02
  25.794  0.5794E+00  0.4755E+02
  25.804  0.5740E+00  0.4755E+02
  25.814  0.5687E+00  0.4756E+02
  25.824  0.5634E+00  0.4757E+02
  25.834  0.5580E+00  0.4757E+02
  25.844  0.5526E+00  0.4758E+02
  25.854  0.5472E+00  0.4758E+02
  25.864  0.5417E+00  0.4759E+02
  25.874  0.5362E+00  0.4759E+02
  25.884  0.5307E+00  0.4760E+02
  25.894  0.5250E+00  0.4760E+02
  25.904  0.5193E+00  0.4761E+02
  25.914  0.5136E+00  0.4761E+02
  25.924  0.5078E+00  0.4762E+02
  25.934  0.5019E+00  0.4762E+02
  25.944  0.4959E+00  0.4763E+02
  25.954  0.4899E+00  0.4763E+02
  25.964  0.4837E+00  0.4764E+02
  25.974  0.4776E+00  0.4764E+02
  25.984  0.4713E+00  0.4765E+02
  25.994  0.4650E+00  0.4765E+02
  26.004  0.4586E+00  0.4766E+02
  26.014  0.4522E+00  0.4766E+02
  26.024  0.4457E+00  0.4767E+02
  26.034  0.4391E+00  0.4767E+02
  26.044  0.4325E+00  0.4768E+02
  26.054  0.4259E+00  0.4768E+02
  26.064  0.4192E+00  0.4768E+02
  26.074  0.4126E+00  0.4769E+02
  26.084  0.4059E+00  0.4769E+02
  26.094  0.3991E+00  0.4770E+02
  26.104  0.3924E+00  0.4770E+02
  26.114  0.3858E+00  0.4770E+02
  26.124  0.3791E+00  0.4771E+02
  26.134  0.3725E+00  0.4771E+02
  26.144  0.3659E+00  0.4771E+02
  26.154  0.3594E+00  0.4772E+02
  26.164  0.3530E+00  0.4772E+02
  26.174  0.3466E+00  0.4773E+02
  26.184  0.3404E+00  0.4773E+02
  26.194  0.3342E+00  0.4773E+02
  26.204  0.3282E+00  0.4774E+02
  26.214  0.3224E+00  0.4774E+02
  26.224  0.3166E+00  0.4774E+02
  26.234  0.3111E+00  0.4774E+02
  26.244  0.3057E+00  0.4775E+02
  26.254  0.3004E+00  0.4775E+02
  26.264  0.2954E+00  0.4775E+02
  26.274  0.2905E+00  0.4776E+02
  26.284  0.2858E+00  0.4776E+02
  26.294  0.2814E+00  0.4776E+02
  26.304  0.2771E+00  0.4777E+02
  26.314  0.2730E+00  0.4777E+02
  26.324  0.2691E+00  0.4777E+02
  26.334  0.2653E+00  0.4777E+02
  26.344  0.2618E+00  0.4778E+02
  26.354  0.2585E+00  0.4778E+02
  26.364  0.2553E+00  0.4778E+02
  26.374  0.2523E+00  0.4778E+02
  26.384  0.2495E+00  0.4779E+02
  26.394  0.2468E+00  0.4779E+02
  26.404  0.2443E+00  0.4779E+02
  26.414  0.2420E+00  0.4779E+02
  26.424  0.2398E+00  0.4780E+02
  26.434  0.2377E+00  0.4780E+02
  26.444  0.2357E+00  0.4780E+02
  26.454  0.2339E+00  0.4780E+02
  26.464  0.2321E+00  0.4781E+02
  26.474  0.2305E+00  0.4781E+02
  26.484  0.2290E+00  0.4781E+02
  26.494  0.2276E+00  0.4781E+02
  26.504  0.2262E+00  0.4781E+02
  26.514  0.2250E+00  0.4782E+02
  26.524  0.2238E+00  0.4782E+02
  26.534  0.2226E+00  0.4782E+02
  26.544  0.2216E+00  0.4782E+02
  26.554  0.2206E+00  0.4783E+02
  26.564  0.2197E+00  0.4783E+02
  26.574  0.2188E+00  0.4783E+02
  26.584  0.2180E+00  0.4783E+02
  26.594  0.2172E+00  0.4783E+02
  26.604  0.2164E+00  0.4784E+02
  26.614  0.2157E+00  0.4784E+02
  26.624  0.2151E+00  0.4784E+02
  26.634  0.2144E+00  0.4784E+02
  26.644  0.2138E+00  0.4785E+02
  26.654  0.2132E+00  0.4785E+02
  26.664  0.2126E+00  0.4785E+02
  26.674  0.2120E+00  0.4785E+02
  26.684  0.2114E+00  0.4785E+02
  26.694  0.2108E+00  0.4786E+02
  26.704  0.2102E+00  0.4786E+02
  26.714  0.2095E+00  0.4786E+02
  26.724  0.2089E+00  0.4786E+02
  26.734  0.2082E+00  0.4786E+02
  26.744  0.2075E+00  0.4787E+02
  26.754  0.2067E+00  0.4787E+02
  26.764  0.2059E+00  0.4787E+02
  26.774  0.2050E+00  0.4787E+02
  26.784  0.2041E+00  0.4787E+02
  26.794  0.2031E+00  0.4788E+02
  26.804  0.2021E+00  0.4788E+02
  26.814  0.2010E+00  0.4788E+02
  26.824  0.1998E+00  0.4788E+02
  26.834  0.1986E+00  0.4788E+02
  26.844  0.1973E+00  0.4789E+02
  26.854  0.1960E+00  0.4789E+02
  26.864  0.1946E+00  0.4789E+02
  26.874  0.1931E+00  0.4789E+02
  26.884  0.1915E+00  0.4789E+02
  26.894  0.1900E+00  0.4790E+02
  26.904  0.1883E+00  0.4790E+02
  26.914  0.1866E+00  0.4790E+02
  26.924  0.1849E+00  0.4790E+02
  26.934  0.1831E+00  0.4790E+02
  26.944  0.1813E+00  0.4791E+02
  26.954  0.1795E+00  0.4791E+02
  26.964  0.1777E+00  0.4791E+02
  26.974  0.1758E+00  0.4791E+02
  26.984  0.1739E+00  0.4791E+02
  26.994  0.1720E+00  0.4791E+02
  27.004  0.1701E+00  0.4792E+02
  27.014  0.1682E+00  0.4792E+02
  27.024  0.1663E+00  0.4792E+02
  27.034  0.1643E+00  0.4792E+02
  27.044  0.1624E+00  0.4792E+02
  27.054  0.1605E+00  0.4792E+02
  27.064  0.1585E+00  0.4793E+02
  27.074  0.1566E+00  0.4793E+02
  27.084  0.1546E+00  0.4793E+02
  27.094  0.1527E+00  0.4793E+02
  27.104  0.1507E+00  0.4793E+02
  27.114  0.1487E+00  0.4793E+02
  27.124  0.1466E+00  0.4793E+02
  27.134  0.1446E+00  0.4794E+02
  27.144  0.1425E+00  0.4794E+02
  27.154  0.1403E+00  0.4794E+02
  27.164  0.1381E+00  0.4794E+02
  27.174  0.1359E+00  0.4794E+02
  27.184  0.1336E+00  0.4794E+02
  27.194  0.1312E+00  0.4794E+02
  27.204  0.1288E+00  0.4795E+02
  27.214  0.1263E+00  0.4795E+02
  27.224  0.1237E+00  0.4795E+02
  27.234  0.1211E+00  0.4795E+02
  27.244  0.1184E+00  0.4795E+02
  27.254  0.1156E+00  0.4795E+02
  27.264  0.1128E+00  0.4795E+02
  27.274  0.1098E+00  0.4795E+02
  27.284  0.1069E+00  0.4795E+02
  27.294  0.1038E+00  0.4796E+02
  27.304  0.1007E+00  0.4796E+02
  27.314  0.9754E-01  0.4796E+02
  27.324  0.9435E-01  0.4796E+02
  27.334  0.9112E-01  0.4796E+02
  27.344  0.8786E-01  0.4796E+02
  27.354  0.8458E-01  0.4796E+02
  27.364  0.8130E-01  0.4796E+02
  27.374  0.7802E-01  0.4796E+02
  27.384  0.7476E-01  0.4796E+02
  27.394  0.7152E-01  0.4796E+02
  27.404  0.6831E-01  0.4797E+02
  27.414  0.6516E-01  0.4797E+02
  27.424  0.6205E-01  0.4797E+02
  27.434  0.5901E-01  0.4797E+02
  27.444  0.5605E-01  0.4797E+02
  27.454  0.5317E-01  0.4797E+02
  27.464  0.5039E-01  0.4797E+02
  27.474  0.4770E-01  0.4797E+02
  27.484  0.4512E-01  0.4797E+02
  27.494  0.4266E-01  0.4797E+02
  27.504  0.4031E-01  0.4797E+02
  27.514  0.3808E-01  0.4797E+02
  27.524  0.3597E-01  0.4797E+02
  27.534  0.3399E-01  0.4797E+02
  27.544  0.3214E-01  0.4797E+02
  27.554  0.3042E-01  0.4797E+02
  27.564  0.2882E-01  0.4797E+02
  27.574  0.2735E-01  0.4797E+02
  27.584  0.2600E-01  0.4797E+02
  27.594  0.2477E-01  0.4797E+02
  27.604  0.2366E-01  0.4797E+02
  27.614  0.2265E-01  0.4797E+02
  27.624  0.2175E-01  0.4797E+02
  27.634  0.2095E-01  0.4797E+02
  27.644  0.2024E-01  0.4797E+02
  27.654  0.1963E-01  0.4797E+02
  27.664  0.1909E-01  0.4797E+02
  27.674  0.1862E-01  0.4797E+02
  27.684  0.1822E-01  0.4798E+02
  27.694  0.1788E-01  0.4798E+02
  27.704  0.1759E-01  0.4798E+02
  27.714  0.1735E-01  0.4798E+02
  27.724  0.1715E-01  0.4798E+02
  27.734  0.1698E-01  0.4798E+02
  27.744  0.1683E-01  0.4798E+02
  27.754  0.1671E-01  0.4798E+02
  27.764  0.1660E-01  0.4798E+02
  27.774  0.1650E-01  0.4798E+02
  27.784  0.1641E-01  0.4798E+02
  27.794  0.1633E-01  0.4798E+02
  27.804  0.1624E-01  0.4798E+02
  27.814  0.1615E-01  0.4798E+02
  27.824  0.1605E-01  0.4798E+02
  27.834  0.1594E-01  0.4798E+02
  27.844  0.1583E-01  0.4798E+02
  27.854  0.1571E-01  0.4798E+02
  27.864  0.1558E-01  0.4798E+02
  27.874  0.1544E-01  0.4798E+02
  27.884  0.1529E-01  0.4798E+02
  27.894  0.1513E-01  0.4798E+02
  27.904  0.1497E-01  0.4798E+02
  27.914  0.1481E-01  0.4798E+02
  27.924  0.1464E-01  0.4798E+02
  27.934  0.1448E-01  0.4798E+02
  27.944  0.1432E-01  0.4798E+02
  27.954  0.1416E-01  0.4798E+02
  27.964  0.1402E-01  0.4798E+02
  27.974  0.1389E-01  0.4798E+02
  27.984  0.1377E-01  0.4798E+02
  27.994  0.1368E-01  0.4798E+02
  28.004  0.1360E-01  0.4798E+02
  28.014  0.1355E-01  0.4798E+02
  28.024  0.1353E-01  0.4798E+02
  28.034  0.1354E-01  0.4798E+02
  28.044  0.1358E-01  0.4798E+02
  28.054  0.1365E-01  0.4798E+02
  28.064  0.1376E-01  0.4798E+02
  28.074  0.1390E-01  0.4798E+02
  28.084  0.1408E-01  0.4798E+02
  28.094  0.1430E-01  0.4798E+02
  28.104  0.1455E-01  0.4798E+02
  28.114  0.1484E-01  0.4798E+02
  28.124  0.1516E-01  0.4798E+02
  28.134  0.1551E-01  0.4798E+02
  28.144  0.1590E-01  0.4798E+02
  28.154  0.1631E-01  0.4798E+02
  28.164  0.1675E-01  0.4798E+02
  28.174  0.1721E-01  0.4798E+02
  28.184  0.1769E-01  0.4798E+02
  28.194  0.1818E-01  0.4798E+02
  28.204  0.1869E-01  0.4798E+02
  28.214  0.1919E-01  0.4798E+02
  28.224  0.1970E-01  0.4798E+02
  28.234  0.2021E-01  0.4798E+02
  28.244  0.2070E-01  0.4798E+02
  28.254  0.2118E-01  0.4798E+02
  28.264  0.2164E-01  0.4798E+02
  28.274  0.2208E-01  0.4798E+02
  28.284  0.2249E-01  0.4798E+02
  28.294  0.2287E-01  0.4799E+02
  28.304  0.2320E-01  0.4799E+02
  28.314  0.2350E-01  0.4799E+02
  28.324  0.2375E-01  0.4799E+02
  28.334  0.2396E-01  0.4799E+02
  28.344  0.2411E-01  0.4799E+02
  28.354  0.2422E-01  0.4799E+02
  28.364  0.2426E-01  0.4799E+02
  28.374  0.2426E-01  0.4799E+02
  28.384  0.2419E-01  0.4799E+02
  28.394  0.2407E-01  0.4799E+02
  28.404  0.2389E-01  0.4799E+02
  28.414  0.2366E-01  0.4799E+02
  28.424  0.2338E-01  0.4799E+02
  28.434  0.2304E-01  0.4799E+02
  28.444  0.2265E-01  0.4799E+02
  28.454  0.2222E-01  0.4799E+02
  28.464  0.2175E-01  0.4799E+02
  28.474  0.2123E-01  0.4799E+02
  28.484  0.2068E-01  0.4799E+02
  28.494  0.2010E-01  0.4799E+02
  28.504  0.1949E-01  0.4799E+02
  28.514  0.1886E-01  0.4799E+02
  28.524  0.1822E-01  0.4799E+02
  28.534  0.1756E-01  0.4799E+02
  28.544  0.1689E-01  0.4799E+02
  28.554  0.1622E-01  0.4799E+02
  28.564  0.1556E-01  0.4799E+02
  28.574  0.1490E-01  0.4799E+02
  28.584  0.1425E-01  0.4799E+02
  28.594  0.1361E-01  0.4799E+02
  28.604  0.1300E-01  0.4799E+02
  28.614  0.1241E-01  0.4799E+02
  28.624  0.1184E-01  0.4799E+02
  28.634  0.1131E-01  0.4799E+02
  28.644  0.1081E-01  0.4799E+02
  28.654  0.1034E-01  0.4799E+02
  28.664  0.9912E-02  0.4799E+02
  28.674  0.9523E-02  0.4799E+02
  28.684  0.9174E-02  0.4799E+02
  28.694  0.8867E-02  0.4799E+02
  28.704  0.8602E-02  0.4799E+02
  28.714  0.8379E-02  0.4799E+02
  28.724  0.8199E-02  0.4799E+02
  28.734  0.8061E-02  0.4799E+02
  28.744  0.7964E-02  0.4799E+02
  28.754  0.7907E-02  0.4799E+02
  28.764  0.7889E-02  0.4799E+02
  28.774  0.7908E-02  0.4799E+02
  28.784  0.7962E-02  0.4799E+02
  28.794  0.8049E-02  0.4799E+02
  28.804  0.8167E-02  0.4799E+02
  28.814  0.8312E-02  0.4799E+02
  28.824  0.8482E-02  0.4799E+02
  28.834  0.8673E-02  0.4799E+02
  28.844  0.8884E-02  0.4799E+02
  28.854  0.9110E-02  0.4799E+02
  28.864  0.9347E-02  0.4799E+02
  28.874  0.9594E-02  0.4799E+02
  28.884  0.9846E-02  0.4799E+02
  28.894  0.1010E-01  0.4799E+02
  28.904  0.1035E-01  0.4799E+02
  28.914  0.1060E-01  0.4799E+02
  28.924  0.1084E-01  0.4799E+02
  28.934  0.1107E-01  0.4799E+02
  28.944  0.1128E-01  0.4799E+02
  28.954  0.1148E-01  0.4799E+02
  28.964  0.1166E-01  0.4799E+02
  28.974  0.1182E-01  0.4799E+02
  28.984  0.1195E-01  0.4800E+02
  28.994  0.1206E-01  0.4800E+02
  29.004  0.1214E-01  0.4800E+02
  29.014  0.1220E-01  0.4800E+02
  29.024  0.1222E-01  0.4800E+02
  29.034  0.1222E-01  0.4800E+02
  29.044  0.1219E-01  0.4800E+02
  29.054  0.1213E-01  0.4800E+02
  29.064  0.1204E-01  0.4800E+02
  29.074  0.1192E-01  0.4800E+02
  29.084  0.1177E-01  0.4800E+02
  29.094  0.1160E-01  0.4800E+02
  29.104  0.1140E-01  0.4800E+02
  29.114  0.1118E-01  0.4800E+02
  29.124  0.1094E-01  0.4800E+02
  29.134  0.1068E-01  0.4800E+02
  29.144  0.1040E-01  0.4800E+02
  29.154  0.1011E-01  0.4800E+02
  29.164  0.9802E-02  0.4800E+02
  29.174  0.9486E-02  0.4800E+02
  29.184  0.9163E-02  0.4800E+02
  29.194  0.8835E-02  0.4800E+02
  29.204  0.8504E-02  0.4800E+02
  29.214  0.8172E-02  0.4800E+02
  29.224  0.7843E-02  0.4800E+02
  29.234  0.7517E-02  0.4800E+02
  29.244  0.7197E-02  0.4800E+02
  29.254  0.6885E-02  0.4800E+02
  29.264  0.6583E-02  0.4800E+02
  29.274  0.6291E-02  0.4800E+02
  29.284  0.6012E-02  0.4800E+02
  29.294  0.5746E-02  0.4800E+02
  29.304  0.5495E-02  0.4800E+02
  29.314  0.5259E-02  0.4800E+02
  29.324  0.5039E-02  0.4800E+02
  29.334  0.4835E-02  0.4800E+02
  29.344  0.4647E-02  0.4800E+02
  29.354  0.4475E-02  0.4800E+02
  29.364  0.4319E-02  0.4800E+02
  29.374  0.4179E-02  0.4800E+02
  29.384  0.4054E-02  0.4800E+02
  29.394  0.3943E-02  0.4800E+02
  29.404  0.3846E-02  0.4800E+02
  29.414  0.3761E-02  0.4800E+02
  29.424  0.3689E-02  0.4800E+02
  29.434  0.3626E-02  0.4800E+02
  29.444  0.3574E-02  0.4800E+02
  29.454  0.3530E-02  0.4800E+02
  29.464  0.3493E-02  0.4800E+02
  29.474  0.3462E-02  0.4800E+02
  29.484  0.3436E-02  0.4800E+02
  29.494  0.3413E-02  0.4800E+02
  29.504  0.3393E-02  0.4800E+02
  29.514  0.3375E-02  0.4800E+02
  29.524  0.3357E-02  0.4800E+02
  29.534  0.3339E-02  0.4800E+02
  29.544  0.3319E-02  0.4800E+02
  29.554  0.3297E-02  0.4800E+02
  29.564  0.3273E-02  0.4800E+02
  29.574  0.3245E-02  0.4800E+02
  29.584  0.3213E-02  0.4800E+02
  29.594  0.3177E-02  0.4800E+02
  29.604  0.3136E-02  0.4800E+02
  29.614  0.3090E-02  0.4800E+02
  29.624  0.3039E-02  0.4800E+02
  29.634  0.2983E-02  0.4800E+02
  29.644  0.2922E-02  0.4800E+02
  29.654  0.2856E-02  0.4800E+02
  29.664  0.2785E-02  0.4800E+02
  29.674  0.2710E-02  0.4800E+02
  29.684  0.2631E-02  0.4800E+02
  29.694  0.2547E-02  0.4800E+02
  29.704  0.2461E-02  0.4800E+02
  29.714  0.2372E-02  0.4800E+02
  29.724  0.2280E-02  0.4800E+02
  29.734  0.2186E-02  0.4800E+02
  29.744  0.2091E-02  0.4800E+02
  29.754  0.1994E-02  0.4800E+02
  29.764  0.1898E-02  0.4800E+02
  29.774  0.1801E-02  0.4800E+02
  29.784  0.1705E-02  0.4800E+02
  29.794  0.1609E-02  0.4800E+02
  29.804  0.1515E-02  0.4800E+02
  29.814  0.1423E-02  0.4800E+02
  29.824  0.1333E-02  0.4800E+02
  29.834  0.1245E-02  0.4800E+02
  29.844  0.1160E-02  0.4800E+02
  29.854  0.1077E-02  0.4800E+02
  29.864  0.9983E-03  0.4800E+02
  29.874  0.9226E-03  0.4800E+02
  29.884  0.8503E-03  0.4800E+02
  29.894  0.7816E-03  0.4800E+02
  29.904  0.7165E-03  0.4800E+02
  29.914  0.6551E-03  0.4800E+02
  29.924  0.5973E-03  0.4800E+02
  29.934  0.5432E-03  0.4800E+02
  29.944  0.4926E-03  0.4800E+02
  29.954  0.4456E-03  0.4800E+02
  29.964  0.4019E-03  0.4800E+02
  29.974  0.3616E-03  0.4800E+02
  29.984  0.3244E-03  0.4800E+02
  29.994  0.2903E-03  0.4800E+02
  30.004  0.2590E-03  0.4800E+02
  30.014  0.2305E-03  0.4800E+02
  30.024  0.2046E-03  0.4800E+02
  30.034  0.1811E-03  0.4800E+02
  30.044  0.1599E-03  0.4800E+02
  30.054  0.1408E-03  0.4800E+02
  30.064  0.1236E-03  0.4800E+02
  30.074  0.1082E-03  0.4800E+02
  30.084  0.9451E-04  0.4800E+02
  30.094  0.8232E-04  0.4800E+02
  30.104  0.7150E-04  0.4800E+02
  30.114  0.6194E-04  0.4800E+02
  30.124  0.5351E-04  0.4800E+02
  30.134  0.4610E-04  0.4800E+02
  30.144  0.3962E-04  0.4800E+02
  30.154  0.3395E-04  0.4800E+02
  30.164  0.2901E-04  0.4800E+02
  30.174  0.2473E-04  0.4800E+02
  30.184  0.2102E-04  0.4800E+02
  30.194  0.1782E-04  0.4800E+02
  30.204  0.1507E-04  0.4800E+02
  30.214  0.1270E-04  0.4800E+02
  30.224  0.1068E-04  0.4800E+02
  30.234  0.8959E-05  0.4800E+02
  30.244  0.7493E-05  0.4800E+02
  30.254  0.6250E-05  0.4800E+02
  30.264  0.5199E-05  0.4800E+02
  30.274  0.4313E-05  0.4800E+02
  30.284  0.3569E-05  0.4800E+02
  30.294  0.2945E-05  0.4800E+02
  30.304  0.2423E-05  0.4800E+02
  30.314  0.1989E-05  0.4800E+02
  30.324  0.1628E-05  0.4800E+02
  30.334  0.1329E-05  0.4800E+02
  30.344  0.1082E-05  0.4800E+02
  30.354  0.8782E-06  0.4800E+02
  30.364  0.7111E-06  0.4800E+02
  30.374  0.5742E-06  0.4800E+02
  30.384  0.4625E-06  0.4800E+02
