#  E (eV)   dos(E)     Int dos(E) EFermi =   10.812 eV
 -13.667  0.3805E-03  0.3805E-05
 -13.657  0.4068E-03  0.7873E-05
 -13.647  0.4347E-03  0.1222E-04
 -13.637  0.4644E-03  0.1686E-04
 -13.627  0.4961E-03  0.2182E-04
 -13.617  0.5298E-03  0.2712E-04
 -13.607  0.5657E-03  0.3278E-04
 -13.597  0.6039E-03  0.3882E-04
 -13.587  0.6445E-03  0.4526E-04
 -13.577  0.6877E-03  0.5214E-04
 -13.567  0.7337E-03  0.5948E-04
 -13.557  0.7825E-03  0.6730E-04
 -13.547  0.8345E-03  0.7565E-04
 -13.537  0.8896E-03  0.8454E-04
 -13.527  0.9483E-03  0.9403E-04
 -13.517  0.1011E-02  0.1041E-03
 -13.507  0.1077E-02  0.1149E-03
 -13.497  0.1147E-02  0.1264E-03
 -13.487  0.1221E-02  0.1386E-03
 -13.477  0.1300E-02  0.1516E-03
 -13.467  0.1384E-02  0.1654E-03
 -13.457  0.1473E-02  0.1802E-03
 -13.447  0.1568E-02  0.1958E-03
 -13.437  0.1668E-02  0.2125E-03
 -13.427  0.1774E-02  0.2303E-03
 -13.417  0.1886E-02  0.2491E-03
 -13.407  0.2005E-02  0.2692E-03
 -13.397  0.2132E-02  0.2905E-03
 -13.387  0.2265E-02  0.3131E-03
 -13.377  0.2407E-02  0.3372E-03
 -13.367  0.2556E-02  0.3628E-03
 -13.357  0.2715E-02  0.3899E-03
 -13.347  0.2882E-02  0.4187E-03
 -13.337  0.3060E-02  0.4493E-03
 -13.327  0.3247E-02  0.4818E-03
 -13.317  0.3446E-02  0.5163E-03
 -13.307  0.3655E-02  0.5528E-03
 -13.297  0.3877E-02  0.5916E-03
 -13.287  0.4111E-02  0.6327E-03
 -13.277  0.4358E-02  0.6763E-03
 -13.267  0.4620E-02  0.7225E-03
 -13.257  0.4896E-02  0.7714E-03
 -13.247  0.5187E-02  0.8233E-03
 -13.237  0.5494E-02  0.8783E-03
 -13.227  0.5818E-02  0.9364E-03
 -13.217  0.6160E-02  0.9980E-03
 -13.207  0.6521E-02  0.1063E-02
 -13.197  0.6901E-02  0.1132E-02
 -13.187  0.7302E-02  0.1205E-02
 -13.177  0.7725E-02  0.1283E-02
 -13.167  0.8170E-02  0.1364E-02
 -13.157  0.8640E-02  0.1451E-02
 -13.147  0.9134E-02  0.1542E-02
 -13.137  0.9654E-02  0.1639E-02
 -13.127  0.1020E-01  0.1741E-02
 -13.117  0.1078E-01  0.1848E-02
 -13.107  0.1138E-01  0.1962E-02
 -13.097  0.1202E-01  0.2082E-02
 -13.087  0.1269E-01  0.2209E-02
 -13.077  0.1340E-01  0.2343E-02
 -13.067  0.1414E-01  0.2485E-02
 -13.057  0.1492E-01  0.2634E-02
 -13.047  0.1574E-01  0.2791E-02
 -13.037  0.1660E-01  0.2957E-02
 -13.027  0.1751E-01  0.3132E-02
 -13.017  0.1846E-01  0.3317E-02
 -13.007  0.1945E-01  0.3512E-02
 -12.997  0.2050E-01  0.3717E-02
 -12.987  0.2160E-01  0.3933E-02
 -12.977  0.2275E-01  0.4160E-02
 -12.967  0.2396E-01  0.4400E-02
 -12.957  0.2522E-01  0.4652E-02
 -12.947  0.2655E-01  0.4917E-02
 -12.937  0.2794E-01  0.5197E-02
 -12.927  0.2940E-01  0.5491E-02
 -12.917  0.3093E-01  0.5800E-02
 -12.907  0.3253E-01  0.6125E-02
 -12.897  0.3420E-01  0.6467E-02
 -12.887  0.3596E-01  0.6827E-02
 -12.877  0.3779E-01  0.7205E-02
 -12.867  0.3972E-01  0.7602E-02
 -12.857  0.4173E-01  0.8019E-02
 -12.847  0.4383E-01  0.8458E-02
 -12.837  0.4603E-01  0.8918E-02
 -12.827  0.4832E-01  0.9401E-02
 -12.817  0.5073E-01  0.9908E-02
 -12.807  0.5324E-01  0.1044E-01
 -12.797  0.5586E-01  0.1100E-01
 -12.787  0.5860E-01  0.1159E-01
 -12.777  0.6145E-01  0.1220E-01
 -12.767  0.6444E-01  0.1284E-01
 -12.757  0.6755E-01  0.1352E-01
 -12.747  0.7080E-01  0.1423E-01
 -12.737  0.7420E-01  0.1497E-01
 -12.727  0.7773E-01  0.1575E-01
 -12.717  0.8142E-01  0.1656E-01
 -12.707  0.8526E-01  0.1741E-01
 -12.697  0.8927E-01  0.1831E-01
 -12.687  0.9345E-01  0.1924E-01
 -12.677  0.9780E-01  0.2022E-01
 -12.667  0.1023E+00  0.2124E-01
 -12.657  0.1070E+00  0.2231E-01
 -12.647  0.1119E+00  0.2343E-01
 -12.637  0.1171E+00  0.2460E-01
 -12.627  0.1224E+00  0.2583E-01
 -12.617  0.1279E+00  0.2711E-01
 -12.607  0.1337E+00  0.2844E-01
 -12.597  0.1396E+00  0.2984E-01
 -12.587  0.1458E+00  0.3130E-01
 -12.577  0.1523E+00  0.3282E-01
 -12.567  0.1590E+00  0.3441E-01
 -12.557  0.1660E+00  0.3607E-01
 -12.547  0.1732E+00  0.3780E-01
 -12.537  0.1807E+00  0.3961E-01
 -12.527  0.1885E+00  0.4150E-01
 -12.517  0.1966E+00  0.4346E-01
 -12.507  0.2050E+00  0.4551E-01
 -12.497  0.2138E+00  0.4765E-01
 -12.487  0.2228E+00  0.4988E-01
 -12.477  0.2322E+00  0.5220E-01
 -12.467  0.2419E+00  0.5462E-01
 -12.457  0.2519E+00  0.5714E-01
 -12.447  0.2623E+00  0.5976E-01
 -12.437  0.2731E+00  0.6249E-01
 -12.427  0.2843E+00  0.6534E-01
 -12.417  0.2959E+00  0.6829E-01
 -12.407  0.3079E+00  0.7137E-01
 -12.397  0.3203E+00  0.7458E-01
 -12.387  0.3331E+00  0.7791E-01
 -12.377  0.3463E+00  0.8137E-01
 -12.367  0.3600E+00  0.8497E-01
 -12.357  0.3742E+00  0.8871E-01
 -12.347  0.3888E+00  0.9260E-01
 -12.337  0.4040E+00  0.9664E-01
 -12.327  0.4196E+00  0.1008E+00
 -12.317  0.4357E+00  0.1052E+00
 -12.307  0.4524E+00  0.1097E+00
 -12.297  0.4696E+00  0.1144E+00
 -12.287  0.4873E+00  0.1193E+00
 -12.277  0.5056E+00  0.1243E+00
 -12.267  0.5245E+00  0.1296E+00
 -12.257  0.5440E+00  0.1350E+00
 -12.247  0.5641E+00  0.1407E+00
 -12.237  0.5847E+00  0.1465E+00
 -12.227  0.6061E+00  0.1526E+00
 -12.217  0.6280E+00  0.1589E+00
 -12.207  0.6506E+00  0.1654E+00
 -12.197  0.6739E+00  0.1721E+00
 -12.187  0.6979E+00  0.1791E+00
 -12.177  0.7225E+00  0.1863E+00
 -12.167  0.7479E+00  0.1938E+00
 -12.157  0.7740E+00  0.2015E+00
 -12.147  0.8008E+00  0.2095E+00
 -12.137  0.8284E+00  0.2178E+00
 -12.127  0.8567E+00  0.2264E+00
 -12.117  0.8858E+00  0.2352E+00
 -12.107  0.9158E+00  0.2444E+00
 -12.097  0.9465E+00  0.2539E+00
 -12.087  0.9780E+00  0.2636E+00
 -12.077  0.1010E+01  0.2737E+00
 -12.067  0.1044E+01  0.2842E+00
 -12.057  0.1078E+01  0.2950E+00
 -12.047  0.1113E+01  0.3061E+00
 -12.037  0.1149E+01  0.3176E+00
 -12.027  0.1185E+01  0.3294E+00
 -12.017  0.1223E+01  0.3417E+00
 -12.007  0.1262E+01  0.3543E+00
 -11.997  0.1301E+01  0.3673E+00
 -11.987  0.1342E+01  0.3807E+00
 -11.977  0.1383E+01  0.3945E+00
 -11.967  0.1425E+01  0.4088E+00
 -11.957  0.1469E+01  0.4235E+00
 -11.947  0.1513E+01  0.4386E+00
 -11.937  0.1559E+01  0.4542E+00
 -11.927  0.1605E+01  0.4702E+00
 -11.917  0.1652E+01  0.4868E+00
 -11.907  0.1701E+01  0.5038E+00
 -11.897  0.1750E+01  0.5213E+00
 -11.887  0.1801E+01  0.5393E+00
 -11.877  0.1853E+01  0.5578E+00
 -11.867  0.1905E+01  0.5769E+00
 -11.857  0.1959E+01  0.5964E+00
 -11.847  0.2014E+01  0.6166E+00
 -11.837  0.2070E+01  0.6373E+00
 -11.827  0.2127E+01  0.6586E+00
 -11.817  0.2185E+01  0.6804E+00
 -11.807  0.2244E+01  0.7029E+00
 -11.797  0.2305E+01  0.7259E+00
 -11.787  0.2366E+01  0.7496E+00
 -11.777  0.2429E+01  0.7738E+00
 -11.767  0.2493E+01  0.7988E+00
 -11.757  0.2557E+01  0.8243E+00
 -11.747  0.2623E+01  0.8506E+00
 -11.737  0.2690E+01  0.8775E+00
 -11.727  0.2759E+01  0.9051E+00
 -11.717  0.2828E+01  0.9334E+00
 -11.707  0.2898E+01  0.9623E+00
 -11.697  0.2970E+01  0.9920E+00
 -11.687  0.3043E+01  0.1022E+01
 -11.677  0.3117E+01  0.1054E+01
 -11.667  0.3191E+01  0.1086E+01
 -11.657  0.3267E+01  0.1118E+01
 -11.647  0.3345E+01  0.1152E+01
 -11.637  0.3423E+01  0.1186E+01
 -11.627  0.3502E+01  0.1221E+01
 -11.617  0.3582E+01  0.1257E+01
 -11.607  0.3664E+01  0.1293E+01
 -11.597  0.3746E+01  0.1331E+01
 -11.587  0.3829E+01  0.1369E+01
 -11.577  0.3914E+01  0.1408E+01
 -11.567  0.3999E+01  0.1448E+01
 -11.557  0.4086E+01  0.1489E+01
 -11.547  0.4173E+01  0.1531E+01
 -11.537  0.4262E+01  0.1573E+01
 -11.527  0.4351E+01  0.1617E+01
 -11.517  0.4441E+01  0.1661E+01
 -11.507  0.4532E+01  0.1707E+01
 -11.497  0.4624E+01  0.1753E+01
 -11.487  0.4717E+01  0.1800E+01
 -11.477  0.4811E+01  0.1848E+01
 -11.467  0.4905E+01  0.1897E+01
 -11.457  0.5000E+01  0.1947E+01
 -11.447  0.5096E+01  0.1998E+01
 -11.437  0.5193E+01  0.2050E+01
 -11.427  0.5290E+01  0.2103E+01
 -11.417  0.5389E+01  0.2157E+01
 -11.407  0.5487E+01  0.2212E+01
 -11.397  0.5587E+01  0.2268E+01
 -11.387  0.5687E+01  0.2325E+01
 -11.377  0.5787E+01  0.2382E+01
 -11.367  0.5888E+01  0.2441E+01
 -11.357  0.5989E+01  0.2501E+01
 -11.347  0.6091E+01  0.2562E+01
 -11.337  0.6194E+01  0.2624E+01
 -11.327  0.6296E+01  0.2687E+01
 -11.317  0.6399E+01  0.2751E+01
 -11.307  0.6502E+01  0.2816E+01
 -11.297  0.6606E+01  0.2882E+01
 -11.287  0.6710E+01  0.2949E+01
 -11.277  0.6813E+01  0.3017E+01
 -11.267  0.6917E+01  0.3086E+01
 -11.257  0.7021E+01  0.3157E+01
 -11.247  0.7126E+01  0.3228E+01
 -11.237  0.7230E+01  0.3300E+01
 -11.227  0.7334E+01  0.3374E+01
 -11.217  0.7437E+01  0.3448E+01
 -11.207  0.7541E+01  0.3523E+01
 -11.197  0.7645E+01  0.3600E+01
 -11.187  0.7748E+01  0.3677E+01
 -11.177  0.7851E+01  0.3756E+01
 -11.167  0.7954E+01  0.3835E+01
 -11.157  0.8056E+01  0.3916E+01
 -11.147  0.8158E+01  0.3998E+01
 -11.137  0.8259E+01  0.4080E+01
 -11.127  0.8360E+01  0.4164E+01
 -11.117  0.8460E+01  0.4248E+01
 -11.107  0.8560E+01  0.4334E+01
 -11.097  0.8659E+01  0.4420E+01
 -11.087  0.8757E+01  0.4508E+01
 -11.077  0.8855E+01  0.4597E+01
 -11.067  0.8951E+01  0.4686E+01
 -11.057  0.9047E+01  0.4777E+01
 -11.047  0.9141E+01  0.4868E+01
 -11.037  0.9235E+01  0.4960E+01
 -11.027  0.9328E+01  0.5054E+01
 -11.017  0.9419E+01  0.5148E+01
 -11.007  0.9510E+01  0.5243E+01
 -10.997  0.9599E+01  0.5339E+01
 -10.987  0.9687E+01  0.5436E+01
 -10.977  0.9774E+01  0.5534E+01
 -10.967  0.9859E+01  0.5632E+01
 -10.957  0.9943E+01  0.5732E+01
 -10.947  0.1003E+02  0.5832E+01
 -10.937  0.1011E+02  0.5933E+01
 -10.927  0.1019E+02  0.6035E+01
 -10.917  0.1026E+02  0.6137E+01
 -10.907  0.1034E+02  0.6241E+01
 -10.897  0.1041E+02  0.6345E+01
 -10.887  0.1049E+02  0.6450E+01
 -10.877  0.1056E+02  0.6555E+01
 -10.867  0.1063E+02  0.6662E+01
 -10.857  0.1070E+02  0.6769E+01
 -10.847  0.1076E+02  0.6876E+01
 -10.837  0.1082E+02  0.6984E+01
 -10.827  0.1089E+02  0.7093E+01
 -10.817  0.1095E+02  0.7203E+01
 -10.807  0.1100E+02  0.7313E+01
 -10.797  0.1106E+02  0.7423E+01
 -10.787  0.1111E+02  0.7535E+01
 -10.777  0.1116E+02  0.7646E+01
 -10.767  0.1121E+02  0.7758E+01
 -10.757  0.1126E+02  0.7871E+01
 -10.747  0.1130E+02  0.7984E+01
 -10.737  0.1135E+02  0.8097E+01
 -10.727  0.1139E+02  0.8211E+01
 -10.717  0.1143E+02  0.8326E+01
 -10.707  0.1146E+02  0.8440E+01
 -10.697  0.1149E+02  0.8555E+01
 -10.687  0.1152E+02  0.8670E+01
 -10.677  0.1155E+02  0.8786E+01
 -10.667  0.1158E+02  0.8902E+01
 -10.657  0.1160E+02  0.9018E+01
 -10.647  0.1162E+02  0.9134E+01
 -10.637  0.1164E+02  0.9250E+01
 -10.627  0.1166E+02  0.9367E+01
 -10.617  0.1167E+02  0.9484E+01
 -10.607  0.1168E+02  0.9600E+01
 -10.597  0.1169E+02  0.9717E+01
 -10.587  0.1170E+02  0.9834E+01
 -10.577  0.1170E+02  0.9951E+01
 -10.567  0.1170E+02  0.1007E+02
 -10.557  0.1170E+02  0.1019E+02
 -10.547  0.1170E+02  0.1030E+02
 -10.537  0.1169E+02  0.1042E+02
 -10.527  0.1168E+02  0.1054E+02
 -10.517  0.1167E+02  0.1065E+02
 -10.507  0.1166E+02  0.1077E+02
 -10.497  0.1164E+02  0.1089E+02
 -10.487  0.1162E+02  0.1100E+02
 -10.477  0.1160E+02  0.1112E+02
 -10.467  0.1157E+02  0.1123E+02
 -10.457  0.1155E+02  0.1135E+02
 -10.447  0.1152E+02  0.1146E+02
 -10.437  0.1149E+02  0.1158E+02
 -10.427  0.1146E+02  0.1169E+02
 -10.417  0.1142E+02  0.1181E+02
 -10.407  0.1138E+02  0.1192E+02
 -10.397  0.1134E+02  0.1204E+02
 -10.387  0.1130E+02  0.1215E+02
 -10.377  0.1125E+02  0.1226E+02
 -10.367  0.1121E+02  0.1237E+02
 -10.357  0.1116E+02  0.1248E+02
 -10.347  0.1110E+02  0.1260E+02
 -10.337  0.1105E+02  0.1271E+02
 -10.327  0.1099E+02  0.1282E+02
 -10.317  0.1094E+02  0.1293E+02
 -10.307  0.1088E+02  0.1303E+02
 -10.297  0.1081E+02  0.1314E+02
 -10.287  0.1075E+02  0.1325E+02
 -10.277  0.1068E+02  0.1336E+02
 -10.267  0.1062E+02  0.1346E+02
 -10.257  0.1055E+02  0.1357E+02
 -10.247  0.1048E+02  0.1367E+02
 -10.237  0.1040E+02  0.1378E+02
 -10.227  0.1033E+02  0.1388E+02
 -10.217  0.1025E+02  0.1398E+02
 -10.207  0.1017E+02  0.1408E+02
 -10.197  0.1009E+02  0.1419E+02
 -10.187  0.1001E+02  0.1429E+02
 -10.177  0.9930E+01  0.1438E+02
 -10.167  0.9845E+01  0.1448E+02
 -10.157  0.9760E+01  0.1458E+02
 -10.147  0.9673E+01  0.1468E+02
 -10.137  0.9585E+01  0.1477E+02
 -10.127  0.9495E+01  0.1487E+02
 -10.117  0.9405E+01  0.1496E+02
 -10.107  0.9313E+01  0.1506E+02
 -10.097  0.9220E+01  0.1515E+02
 -10.087  0.9126E+01  0.1524E+02
 -10.077  0.9031E+01  0.1533E+02
 -10.067  0.8936E+01  0.1542E+02
 -10.057  0.8839E+01  0.1551E+02
 -10.047  0.8741E+01  0.1559E+02
 -10.037  0.8643E+01  0.1568E+02
 -10.027  0.8544E+01  0.1577E+02
 -10.017  0.8444E+01  0.1585E+02
 -10.007  0.8344E+01  0.1593E+02
  -9.997  0.8243E+01  0.1602E+02
  -9.987  0.8142E+01  0.1610E+02
  -9.977  0.8040E+01  0.1618E+02
  -9.967  0.7937E+01  0.1626E+02
  -9.957  0.7835E+01  0.1634E+02
  -9.947  0.7731E+01  0.1641E+02
  -9.937  0.7628E+01  0.1649E+02
  -9.927  0.7524E+01  0.1656E+02
  -9.917  0.7421E+01  0.1664E+02
  -9.907  0.7317E+01  0.1671E+02
  -9.897  0.7213E+01  0.1678E+02
  -9.887  0.7109E+01  0.1686E+02
  -9.877  0.7004E+01  0.1693E+02
  -9.867  0.6900E+01  0.1699E+02
  -9.857  0.6796E+01  0.1706E+02
  -9.847  0.6693E+01  0.1713E+02
  -9.837  0.6589E+01  0.1720E+02
  -9.827  0.6485E+01  0.1726E+02
  -9.817  0.6382E+01  0.1732E+02
  -9.807  0.6279E+01  0.1739E+02
  -9.797  0.6177E+01  0.1745E+02
  -9.787  0.6074E+01  0.1751E+02
  -9.777  0.5973E+01  0.1757E+02
  -9.767  0.5871E+01  0.1763E+02
  -9.757  0.5770E+01  0.1769E+02
  -9.747  0.5670E+01  0.1774E+02
  -9.737  0.5570E+01  0.1780E+02
  -9.727  0.5471E+01  0.1785E+02
  -9.717  0.5372E+01  0.1791E+02
  -9.707  0.5274E+01  0.1796E+02
  -9.697  0.5177E+01  0.1801E+02
  -9.687  0.5080E+01  0.1806E+02
  -9.677  0.4984E+01  0.1811E+02
  -9.667  0.4889E+01  0.1816E+02
  -9.657  0.4795E+01  0.1821E+02
  -9.647  0.4701E+01  0.1826E+02
  -9.637  0.4609E+01  0.1830E+02
  -9.627  0.4517E+01  0.1835E+02
  -9.617  0.4426E+01  0.1839E+02
  -9.607  0.4336E+01  0.1843E+02
  -9.597  0.4247E+01  0.1848E+02
  -9.587  0.4158E+01  0.1852E+02
  -9.577  0.4071E+01  0.1856E+02
  -9.567  0.3985E+01  0.1860E+02
  -9.557  0.3899E+01  0.1864E+02
  -9.547  0.3815E+01  0.1868E+02
  -9.537  0.3732E+01  0.1871E+02
  -9.527  0.3650E+01  0.1875E+02
  -9.517  0.3568E+01  0.1879E+02
  -9.507  0.3488E+01  0.1882E+02
  -9.497  0.3409E+01  0.1885E+02
  -9.487  0.3331E+01  0.1889E+02
  -9.477  0.3254E+01  0.1892E+02
  -9.467  0.3178E+01  0.1895E+02
  -9.457  0.3104E+01  0.1898E+02
  -9.447  0.3030E+01  0.1901E+02
  -9.437  0.2958E+01  0.1904E+02
  -9.427  0.2886E+01  0.1907E+02
  -9.417  0.2816E+01  0.1910E+02
  -9.407  0.2747E+01  0.1913E+02
  -9.397  0.2679E+01  0.1915E+02
  -9.387  0.2612E+01  0.1918E+02
  -9.377  0.2546E+01  0.1921E+02
  -9.367  0.2481E+01  0.1923E+02
  -9.357  0.2418E+01  0.1925E+02
  -9.347  0.2355E+01  0.1928E+02
  -9.337  0.2294E+01  0.1930E+02
  -9.327  0.2234E+01  0.1932E+02
  -9.317  0.2175E+01  0.1935E+02
  -9.307  0.2117E+01  0.1937E+02
  -9.297  0.2060E+01  0.1939E+02
  -9.287  0.2004E+01  0.1941E+02
  -9.277  0.1949E+01  0.1943E+02
  -9.267  0.1896E+01  0.1945E+02
  -9.257  0.1843E+01  0.1946E+02
  -9.247  0.1792E+01  0.1948E+02
  -9.237  0.1741E+01  0.1950E+02
  -9.227  0.1692E+01  0.1952E+02
  -9.217  0.1644E+01  0.1953E+02
  -9.207  0.1596E+01  0.1955E+02
  -9.197  0.1550E+01  0.1956E+02
  -9.187  0.1505E+01  0.1958E+02
  -9.177  0.1461E+01  0.1959E+02
  -9.167  0.1418E+01  0.1961E+02
  -9.157  0.1375E+01  0.1962E+02
  -9.147  0.1334E+01  0.1964E+02
  -9.137  0.1294E+01  0.1965E+02
  -9.127  0.1254E+01  0.1966E+02
  -9.117  0.1216E+01  0.1967E+02
  -9.107  0.1178E+01  0.1968E+02
  -9.097  0.1142E+01  0.1970E+02
  -9.087  0.1106E+01  0.1971E+02
  -9.077  0.1071E+01  0.1972E+02
  -9.067  0.1037E+01  0.1973E+02
  -9.057  0.1004E+01  0.1974E+02
  -9.047  0.9721E+00  0.1975E+02
  -9.037  0.9407E+00  0.1976E+02
  -9.027  0.9101E+00  0.1977E+02
  -9.017  0.8803E+00  0.1978E+02
  -9.007  0.8513E+00  0.1978E+02
  -8.997  0.8231E+00  0.1979E+02
  -8.987  0.7957E+00  0.1980E+02
  -8.977  0.7690E+00  0.1981E+02
  -8.967  0.7430E+00  0.1982E+02
  -8.957  0.7178E+00  0.1982E+02
  -8.947  0.6932E+00  0.1983E+02
  -8.937  0.6694E+00  0.1984E+02
  -8.927  0.6462E+00  0.1984E+02
  -8.917  0.6238E+00  0.1985E+02
  -8.907  0.6019E+00  0.1985E+02
  -8.897  0.5807E+00  0.1986E+02
  -8.887  0.5601E+00  0.1987E+02
  -8.877  0.5402E+00  0.1987E+02
  -8.867  0.5208E+00  0.1988E+02
  -8.857  0.5020E+00  0.1988E+02
  -8.847  0.4838E+00  0.1989E+02
  -8.837  0.4662E+00  0.1989E+02
  -8.827  0.4491E+00  0.1990E+02
  -8.817  0.4325E+00  0.1990E+02
  -8.807  0.4165E+00  0.1990E+02
  -8.797  0.4010E+00  0.1991E+02
  -8.787  0.3859E+00  0.1991E+02
  -8.777  0.3714E+00  0.1992E+02
  -8.767  0.3573E+00  0.1992E+02
  -8.757  0.3437E+00  0.1992E+02
  -8.747  0.3305E+00  0.1993E+02
  -8.737  0.3178E+00  0.1993E+02
  -8.727  0.3054E+00  0.1993E+02
  -8.717  0.2935E+00  0.1994E+02
  -8.707  0.2821E+00  0.1994E+02
  -8.697  0.2709E+00  0.1994E+02
  -8.687  0.2602E+00  0.1994E+02
  -8.677  0.2499E+00  0.1995E+02
  -8.667  0.2399E+00  0.1995E+02
  -8.657  0.2302E+00  0.1995E+02
  -8.647  0.2209E+00  0.1995E+02
  -8.637  0.2120E+00  0.1995E+02
  -8.627  0.2033E+00  0.1996E+02
  -8.617  0.1950E+00  0.1996E+02
  -8.607  0.1869E+00  0.1996E+02
  -8.597  0.1792E+00  0.1996E+02
  -8.587  0.1717E+00  0.1996E+02
  -8.577  0.1645E+00  0.1997E+02
  -8.567  0.1576E+00  0.1997E+02
  -8.557  0.1510E+00  0.1997E+02
  -8.547  0.1445E+00  0.1997E+02
  -8.537  0.1384E+00  0.1997E+02
  -8.527  0.1324E+00  0.1997E+02
  -8.517  0.1267E+00  0.1997E+02
  -8.507  0.1212E+00  0.1998E+02
  -8.497  0.1160E+00  0.1998E+02
  -8.487  0.1109E+00  0.1998E+02
  -8.477  0.1060E+00  0.1998E+02
  -8.467  0.1014E+00  0.1998E+02
  -8.457  0.9686E-01  0.1998E+02
  -8.447  0.9255E-01  0.1998E+02
  -8.437  0.8841E-01  0.1998E+02
  -8.427  0.8444E-01  0.1998E+02
  -8.417  0.8062E-01  0.1998E+02
  -8.407  0.7697E-01  0.1999E+02
  -8.397  0.7346E-01  0.1999E+02
  -8.387  0.7010E-01  0.1999E+02
  -8.377  0.6688E-01  0.1999E+02
  -8.367  0.6379E-01  0.1999E+02
  -8.357  0.6083E-01  0.1999E+02
  -8.347  0.5799E-01  0.1999E+02
  -8.337  0.5528E-01  0.1999E+02
  -8.327  0.5268E-01  0.1999E+02
  -8.317  0.5020E-01  0.1999E+02
  -8.307  0.4782E-01  0.1999E+02
  -8.297  0.4554E-01  0.1999E+02
  -8.287  0.4336E-01  0.1999E+02
  -8.277  0.4128E-01  0.1999E+02
  -8.267  0.3929E-01  0.1999E+02
  -8.257  0.3738E-01  0.1999E+02
  -8.247  0.3557E-01  0.1999E+02
  -8.237  0.3383E-01  0.1999E+02
  -8.227  0.3217E-01  0.1999E+02
  -8.217  0.3058E-01  0.1999E+02
  -8.207  0.2907E-01  0.1999E+02
  -8.197  0.2763E-01  0.2000E+02
  -8.187  0.2625E-01  0.2000E+02
  -8.177  0.2493E-01  0.2000E+02
  -8.167  0.2368E-01  0.2000E+02
  -8.157  0.2248E-01  0.2000E+02
  -8.147  0.2135E-01  0.2000E+02
  -8.137  0.2026E-01  0.2000E+02
  -8.127  0.1922E-01  0.2000E+02
  -8.117  0.1824E-01  0.2000E+02
  -8.107  0.1730E-01  0.2000E+02
  -8.097  0.1640E-01  0.2000E+02
  -8.087  0.1555E-01  0.2000E+02
  -8.077  0.1474E-01  0.2000E+02
  -8.067  0.1397E-01  0.2000E+02
  -8.057  0.1324E-01  0.2000E+02
  -8.047  0.1254E-01  0.2000E+02
  -8.037  0.1187E-01  0.2000E+02
  -8.027  0.1124E-01  0.2000E+02
  -8.017  0.1064E-01  0.2000E+02
  -8.007  0.1007E-01  0.2000E+02
  -7.997  0.9531E-02  0.2000E+02
  -7.987  0.9016E-02  0.2000E+02
  -7.977  0.8528E-02  0.2000E+02
  -7.967  0.8064E-02  0.2000E+02
  -7.957  0.7624E-02  0.2000E+02
  -7.947  0.7206E-02  0.2000E+02
  -7.937  0.6810E-02  0.2000E+02
  -7.927  0.6434E-02  0.2000E+02
  -7.917  0.6078E-02  0.2000E+02
  -7.907  0.5740E-02  0.2000E+02
  -7.897  0.5420E-02  0.2000E+02
  -7.887  0.5116E-02  0.2000E+02
  -7.877  0.4828E-02  0.2000E+02
  -7.867  0.4556E-02  0.2000E+02
  -7.857  0.4298E-02  0.2000E+02
  -7.847  0.4054E-02  0.2000E+02
  -7.837  0.3823E-02  0.2000E+02
  -7.827  0.3604E-02  0.2000E+02
  -7.817  0.3397E-02  0.2000E+02
  -7.807  0.3201E-02  0.2000E+02
  -7.797  0.3016E-02  0.2000E+02
  -7.787  0.2841E-02  0.2000E+02
  -7.777  0.2675E-02  0.2000E+02
  -7.767  0.2519E-02  0.2000E+02
  -7.757  0.2371E-02  0.2000E+02
  -7.747  0.2232E-02  0.2000E+02
  -7.737  0.2100E-02  0.2000E+02
  -7.727  0.1975E-02  0.2000E+02
  -7.717  0.1858E-02  0.2000E+02
  -7.707  0.1747E-02  0.2000E+02
  -7.697  0.1643E-02  0.2000E+02
  -7.687  0.1544E-02  0.2000E+02
  -7.677  0.1451E-02  0.2000E+02
  -7.667  0.1363E-02  0.2000E+02
  -7.657  0.1280E-02  0.2000E+02
  -7.647  0.1202E-02  0.2000E+02
  -7.637  0.1129E-02  0.2000E+02
  -7.627  0.1060E-02  0.2000E+02
  -7.617  0.9945E-03  0.2000E+02
  -7.607  0.9332E-03  0.2000E+02
  -7.597  0.8754E-03  0.2000E+02
  -7.587  0.8210E-03  0.2000E+02
  -7.577  0.7699E-03  0.2000E+02
  -7.567  0.7218E-03  0.2000E+02
  -7.557  0.6765E-03  0.2000E+02
  -7.547  0.6339E-03  0.2000E+02
  -7.537  0.5939E-03  0.2000E+02
  -7.527  0.5563E-03  0.2000E+02
  -7.517  0.5210E-03  0.2000E+02
  -7.507  0.4878E-03  0.2000E+02
  -7.497  0.4566E-03  0.2000E+02
  -7.487  0.4273E-03  0.2000E+02
  -7.477  0.3998E-03  0.2000E+02
  -7.467  0.3740E-03  0.2000E+02
  -7.457  0.3498E-03  0.2000E+02
  -7.447  0.3271E-03  0.2000E+02
  -7.437  0.3058E-03  0.2000E+02
  -7.427  0.2858E-03  0.2000E+02
  -7.417  0.2671E-03  0.2000E+02
  -7.407  0.2495E-03  0.2000E+02
  -7.397  0.2331E-03  0.2000E+02
  -7.387  0.2176E-03  0.2000E+02
  -7.377  0.2032E-03  0.2000E+02
  -7.367  0.1897E-03  0.2000E+02
  -7.357  0.1770E-03  0.2000E+02
  -7.347  0.1652E-03  0.2000E+02
  -7.337  0.1541E-03  0.2000E+02
  -7.327  0.1437E-03  0.2000E+02
  -7.317  0.1340E-03  0.2000E+02
  -7.307  0.1249E-03  0.2000E+02
  -7.297  0.1164E-03  0.2000E+02
  -7.287  0.1085E-03  0.2000E+02
  -7.277  0.1011E-03  0.2000E+02
  -7.267  0.9414E-04  0.2000E+02
  -7.257  0.8766E-04  0.2000E+02
  -7.247  0.8162E-04  0.2000E+02
  -7.237  0.7597E-04  0.2000E+02
  -7.227  0.7070E-04  0.2000E+02
  -7.217  0.6578E-04  0.2000E+02
  -7.207  0.6119E-04  0.2000E+02
  -7.197  0.5691E-04  0.2000E+02
  -7.187  0.5292E-04  0.2000E+02
  -7.177  0.4919E-04  0.2000E+02
  -7.167  0.4572E-04  0.2000E+02
  -7.157  0.4248E-04  0.2000E+02
  -7.147  0.3947E-04  0.2000E+02
  -7.137  0.3666E-04  0.2000E+02
  -7.127  0.3404E-04  0.2000E+02
  -7.117  0.3160E-04  0.2000E+02
  -7.107  0.2934E-04  0.2000E+02
  -7.097  0.2722E-04  0.2000E+02
  -7.087  0.2526E-04  0.2000E+02
  -7.077  0.2343E-04  0.2000E+02
  -7.067  0.2173E-04  0.2000E+02
  -7.057  0.2015E-04  0.2000E+02
  -7.047  0.1868E-04  0.2000E+02
  -7.037  0.1731E-04  0.2000E+02
  -7.027  0.1604E-04  0.2000E+02
  -7.017  0.1486E-04  0.2000E+02
  -7.007  0.1376E-04  0.2000E+02
  -6.997  0.1274E-04  0.2000E+02
  -6.987  0.1180E-04  0.2000E+02
  -6.977  0.1092E-04  0.2000E+02
  -6.967  0.1011E-04  0.2000E+02
  -6.957  0.9351E-05  0.2000E+02
  -6.947  0.8650E-05  0.2000E+02
  -6.937  0.7999E-05  0.2000E+02
  -6.927  0.7396E-05  0.2000E+02
  -6.917  0.6837E-05  0.2000E+02
  -6.907  0.6319E-05  0.2000E+02
  -6.897  0.5839E-05  0.2000E+02
  -6.887  0.5394E-05  0.2000E+02
  -6.877  0.4982E-05  0.2000E+02
  -6.867  0.4600E-05  0.2000E+02
  -6.857  0.4247E-05  0.2000E+02
  -6.847  0.3920E-05  0.2000E+02
  -6.837  0.3617E-05  0.2000E+02
  -6.827  0.3338E-05  0.2000E+02
  -6.817  0.3079E-05  0.2000E+02
  -6.807  0.2839E-05  0.2000E+02
  -6.797  0.2618E-05  0.2000E+02
  -6.787  0.2413E-05  0.2000E+02
  -6.777  0.2224E-05  0.2000E+02
  -6.767  0.2049E-05  0.2000E+02
  -6.757  0.1888E-05  0.2000E+02
  -6.747  0.1739E-05  0.2000E+02
  -6.737  0.1601E-05  0.2000E+02
  -6.727  0.1474E-05  0.2000E+02
  -6.717  0.1357E-05  0.2000E+02
  -6.707  0.1248E-05  0.2000E+02
  -6.697  0.1148E-05  0.2000E+02
  -6.687  0.1056E-05  0.2000E+02
  -6.677  0.9714E-06  0.2000E+02
  -6.667  0.8932E-06  0.2000E+02
  -6.657  0.8210E-06  0.2000E+02
  -6.647  0.7545E-06  0.2000E+02
  -6.637  0.6933E-06  0.2000E+02
  -6.627  0.6369E-06  0.2000E+02
  -6.617  0.5849E-06  0.2000E+02
  -6.607  0.5371E-06  0.2000E+02
  -6.597  0.4931E-06  0.2000E+02
  -6.587  0.4525E-06  0.2000E+02
  -6.577  0.4153E-06  0.2000E+02
  -6.567  0.3810E-06  0.2000E+02
  -6.557  0.3495E-06  0.2000E+02
  -6.547  0.3205E-06  0.2000E+02
  -6.537  0.2938E-06  0.2000E+02
  -6.527  0.2693E-06  0.2000E+02
  -6.517  0.2468E-06  0.2000E+02
  -6.507  0.2261E-06  0.2000E+02
  -6.497  0.2072E-06  0.2000E+02
  -6.487  0.1897E-06  0.2000E+02
  -6.477  0.1737E-06  0.2000E+02
  -6.467  0.1590E-06  0.2000E+02
  -6.457  0.1456E-06  0.2000E+02
  -6.447  0.1332E-06  0.2000E+02
  -6.437  0.1218E-06  0.2000E+02
  -6.427  0.1114E-06  0.2000E+02
  -6.417  0.1019E-06  0.2000E+02
  -6.407  0.9318E-07  0.2000E+02
  -6.397  0.8517E-07  0.2000E+02
  -6.387  0.7783E-07  0.2000E+02
  -6.377  0.7111E-07  0.2000E+02
  -6.367  0.6496E-07  0.2000E+02
  -6.357  0.5933E-07  0.2000E+02
  -6.347  0.5417E-07  0.2000E+02
  -6.337  0.4945E-07  0.2000E+02
  -6.327  0.4513E-07  0.2000E+02
  -6.317  0.4118E-07  0.2000E+02
  -6.307  0.3757E-07  0.2000E+02
  -6.297  0.3427E-07  0.2000E+02
  -6.287  0.3125E-07  0.2000E+02
  -6.277  0.2849E-07  0.2000E+02
  -6.267  0.2597E-07  0.2000E+02
  -6.257  0.2366E-07  0.2000E+02
  -6.247  0.2156E-07  0.2000E+02
  -6.237  0.1964E-07  0.2000E+02
  -6.227  0.1788E-07  0.2000E+02
  -6.217  0.1628E-07  0.2000E+02
  -6.207  0.1482E-07  0.2000E+02
  -6.197  0.1349E-07  0.2000E+02
  -6.187  0.1228E-07  0.2000E+02
  -6.177  0.1117E-07  0.2000E+02
  -6.167  0.1016E-07  0.2000E+02
  -6.157  0.9236E-08  0.2000E+02
  -6.147  0.8396E-08  0.2000E+02
  -6.137  0.7632E-08  0.2000E+02
  -6.127  0.6935E-08  0.2000E+02
  -6.117  0.6301E-08  0.2000E+02
  -6.107  0.5723E-08  0.2000E+02
  -6.097  0.5198E-08  0.2000E+02
  -6.087  0.4719E-08  0.2000E+02
  -6.077  0.4284E-08  0.2000E+02
  -6.067  0.3888E-08  0.2000E+02
  -6.057  0.3528E-08  0.2000E+02
  -6.047  0.3200E-08  0.2000E+02
  -6.037  0.2902E-08  0.2000E+02
  -6.027  0.2632E-08  0.2000E+02
  -6.017  0.2386E-08  0.2000E+02
  -6.007  0.2162E-08  0.2000E+02
  -5.997  0.1960E-08  0.2000E+02
  -5.987  0.1775E-08  0.2000E+02
  -5.977  0.1608E-08  0.2000E+02
  -5.967  0.1456E-08  0.2000E+02
  -5.957  0.1318E-08  0.2000E+02
  -5.947  0.1193E-08  0.2000E+02
  -5.937  0.1080E-08  0.2000E+02
  -5.927  0.9772E-09  0.2000E+02
  -5.917  0.8840E-09  0.2000E+02
  -5.907  0.7995E-09  0.2000E+02
  -5.897  0.7229E-09  0.2000E+02
  -5.887  0.6535E-09  0.2000E+02
  -5.877  0.5907E-09  0.2000E+02
  -5.867  0.5338E-09  0.2000E+02
  -5.857  0.4822E-09  0.2000E+02
  -5.847  0.4355E-09  0.2000E+02
  -5.837  0.3933E-09  0.2000E+02
  -5.827  0.3551E-09  0.2000E+02
  -5.817  0.3205E-09  0.2000E+02
  -5.807  0.2893E-09  0.2000E+02
  -5.797  0.2610E-09  0.2000E+02
  -5.787  0.2354E-09  0.2000E+02
  -5.777  0.2123E-09  0.2000E+02
  -5.767  0.1914E-09  0.2000E+02
  -5.757  0.1726E-09  0.2000E+02
  -5.747  0.1555E-09  0.2000E+02
  -5.737  0.1402E-09  0.2000E+02
  -5.727  0.1263E-09  0.2000E+02
  -5.717  0.1137E-09  0.2000E+02
  -5.707  0.1024E-09  0.2000E+02
  -5.697  0.9220E-10  0.2000E+02
  -5.687  0.8299E-10  0.2000E+02
  -5.677  0.7468E-10  0.2000E+02
  -5.667  0.6719E-10  0.2000E+02
  -5.657  0.6044E-10  0.2000E+02
  -5.647  0.5436E-10  0.2000E+02
  -5.637  0.4887E-10  0.2000E+02
  -5.627  0.4393E-10  0.2000E+02
  -5.617  0.3949E-10  0.2000E+02
  -5.607  0.3548E-10  0.2000E+02
  -5.597  0.3187E-10  0.2000E+02
  -5.587  0.2863E-10  0.2000E+02
  -5.577  0.2571E-10  0.2000E+02
  -5.567  0.2308E-10  0.2000E+02
  -5.557  0.2071E-10  0.2000E+02
  -5.547  0.1859E-10  0.2000E+02
  -5.537  0.1668E-10  0.2000E+02
  -5.527  0.1496E-10  0.2000E+02
  -5.517  0.1342E-10  0.2000E+02
  -5.507  0.1203E-10  0.2000E+02
  -5.497  0.1078E-10  0.2000E+02
  -5.487  0.9664E-11  0.2000E+02
  -5.477  0.8659E-11  0.2000E+02
  -5.467  0.7757E-11  0.2000E+02
  -5.457  0.6948E-11  0.2000E+02
  -5.447  0.6222E-11  0.2000E+02
  -5.437  0.5570E-11  0.2000E+02
  -5.427  0.4986E-11  0.2000E+02
  -5.417  0.4462E-11  0.2000E+02
  -5.407  0.3993E-11  0.2000E+02
  -5.397  0.3572E-11  0.2000E+02
  -5.387  0.3195E-11  0.2000E+02
  -5.377  0.2857E-11  0.2000E+02
  -5.367  0.2555E-11  0.2000E+02
  -5.357  0.2284E-11  0.2000E+02
  -5.347  0.2042E-11  0.2000E+02
  -5.337  0.1825E-11  0.2000E+02
  -5.327  0.1632E-11  0.2000E+02
  -5.317  0.1459E-11  0.2000E+02
  -5.307  0.1304E-11  0.2000E+02
  -5.297  0.1166E-11  0.2000E+02
  -5.287  0.1042E-11  0.2000E+02
  -5.277  0.9323E-12  0.2000E+02
  -5.267  0.8342E-12  0.2000E+02
  -5.257  0.7469E-12  0.2000E+02
  -5.247  0.6693E-12  0.2000E+02
  -5.237  0.6004E-12  0.2000E+02
  -5.227  0.5393E-12  0.2000E+02
  -5.217  0.4852E-12  0.2000E+02
  -5.207  0.4375E-12  0.2000E+02
  -5.197  0.3955E-12  0.2000E+02
  -5.187  0.3587E-12  0.2000E+02
  -5.177  0.3266E-12  0.2000E+02
  -5.167  0.2989E-12  0.2000E+02
  -5.157  0.2751E-12  0.2000E+02
  -5.147  0.2549E-12  0.2000E+02
  -5.137  0.2380E-12  0.2000E+02
  -5.127  0.2243E-12  0.2000E+02
  -5.117  0.2134E-12  0.2000E+02
  -5.107  0.2054E-12  0.2000E+02
  -5.097  0.2000E-12  0.2000E+02
  -5.087  0.1971E-12  0.2000E+02
  -5.077  0.1967E-12  0.2000E+02
  -5.067  0.1988E-12  0.2000E+02
  -5.057  0.2033E-12  0.2000E+02
  -5.047  0.2103E-12  0.2000E+02
  -5.037  0.2198E-12  0.2000E+02
  -5.027  0.2319E-12  0.2000E+02
  -5.017  0.2468E-12  0.2000E+02
  -5.007  0.2645E-12  0.2000E+02
  -4.997  0.2852E-12  0.2000E+02
  -4.987  0.3092E-12  0.2000E+02
  -4.977  0.3366E-12  0.2000E+02
  -4.967  0.3678E-12  0.2000E+02
  -4.957  0.4030E-12  0.2000E+02
  -4.947  0.4427E-12  0.2000E+02
  -4.937  0.4872E-12  0.2000E+02
  -4.927  0.5369E-12  0.2000E+02
  -4.917  0.5924E-12  0.2000E+02
  -4.907  0.6542E-12  0.2000E+02
  -4.897  0.7229E-12  0.2000E+02
  -4.887  0.7993E-12  0.2000E+02
  -4.877  0.8841E-12  0.2000E+02
  -4.867  0.9780E-12  0.2000E+02
  -4.857  0.1082E-11  0.2000E+02
  -4.847  0.1198E-11  0.2000E+02
  -4.837  0.1325E-11  0.2000E+02
  -4.827  0.1466E-11  0.2000E+02
  -4.817  0.1623E-11  0.2000E+02
  -4.807  0.1795E-11  0.2000E+02
  -4.797  0.1986E-11  0.2000E+02
  -4.787  0.2197E-11  0.2000E+02
  -4.777  0.2429E-11  0.2000E+02
  -4.767  0.2686E-11  0.2000E+02
  -4.757  0.2970E-11  0.2000E+02
  -4.747  0.3283E-11  0.2000E+02
  -4.737  0.3628E-11  0.2000E+02
  -4.727  0.4009E-11  0.2000E+02
  -4.717  0.4428E-11  0.2000E+02
  -4.707  0.4891E-11  0.2000E+02
  -4.697  0.5401E-11  0.2000E+02
  -4.687  0.5963E-11  0.2000E+02
  -4.677  0.6582E-11  0.2000E+02
  -4.667  0.7264E-11  0.2000E+02
  -4.657  0.8014E-11  0.2000E+02
  -4.647  0.8841E-11  0.2000E+02
  -4.637  0.9751E-11  0.2000E+02
  -4.627  0.1075E-10  0.2000E+02
  -4.617  0.1185E-10  0.2000E+02
  -4.607  0.1306E-10  0.2000E+02
  -4.597  0.1440E-10  0.2000E+02
  -4.587  0.1586E-10  0.2000E+02
  -4.577  0.1747E-10  0.2000E+02
  -4.567  0.1924E-10  0.2000E+02
  -4.557  0.2118E-10  0.2000E+02
  -4.547  0.2332E-10  0.2000E+02
  -4.537  0.2566E-10  0.2000E+02
  -4.527  0.2824E-10  0.2000E+02
  -4.517  0.3106E-10  0.2000E+02
  -4.507  0.3416E-10  0.2000E+02
  -4.497  0.3756E-10  0.2000E+02
  -4.487  0.4130E-10  0.2000E+02
  -4.477  0.4539E-10  0.2000E+02
  -4.467  0.4988E-10  0.2000E+02
  -4.457  0.5480E-10  0.2000E+02
  -4.447  0.6020E-10  0.2000E+02
  -4.437  0.6611E-10  0.2000E+02
  -4.427  0.7259E-10  0.2000E+02
  -4.417  0.7968E-10  0.2000E+02
  -4.407  0.8745E-10  0.2000E+02
  -4.397  0.9596E-10  0.2000E+02
  -4.387  0.1053E-09  0.2000E+02
  -4.377  0.1155E-09  0.2000E+02
  -4.367  0.1266E-09  0.2000E+02
  -4.357  0.1388E-09  0.2000E+02
  -4.347  0.1521E-09  0.2000E+02
  -4.337  0.1667E-09  0.2000E+02
  -4.327  0.1827E-09  0.2000E+02
  -4.317  0.2001E-09  0.2000E+02
  -4.307  0.2191E-09  0.2000E+02
  -4.297  0.2400E-09  0.2000E+02
  -4.287  0.2627E-09  0.2000E+02
  -4.277  0.2875E-09  0.2000E+02
  -4.267  0.3146E-09  0.2000E+02
  -4.257  0.3442E-09  0.2000E+02
  -4.247  0.3764E-09  0.2000E+02
  -4.237  0.4117E-09  0.2000E+02
  -4.227  0.4501E-09  0.2000E+02
  -4.217  0.4920E-09  0.2000E+02
  -4.207  0.5376E-09  0.2000E+02
  -4.197  0.5874E-09  0.2000E+02
  -4.187  0.6417E-09  0.2000E+02
  -4.177  0.7008E-09  0.2000E+02
  -4.167  0.7653E-09  0.2000E+02
  -4.157  0.8354E-09  0.2000E+02
  -4.147  0.9118E-09  0.2000E+02
  -4.137  0.9950E-09  0.2000E+02
  -4.127  0.1086E-08  0.2000E+02
  -4.117  0.1184E-08  0.2000E+02
  -4.107  0.1291E-08  0.2000E+02
  -4.097  0.1408E-08  0.2000E+02
  -4.087  0.1535E-08  0.2000E+02
  -4.077  0.1673E-08  0.2000E+02
  -4.067  0.1822E-08  0.2000E+02
  -4.057  0.1985E-08  0.2000E+02
  -4.047  0.2162E-08  0.2000E+02
  -4.037  0.2355E-08  0.2000E+02
  -4.027  0.2563E-08  0.2000E+02
  -4.017  0.2790E-08  0.2000E+02
  -4.007  0.3036E-08  0.2000E+02
  -3.997  0.3304E-08  0.2000E+02
  -3.987  0.3593E-08  0.2000E+02
  -3.977  0.3908E-08  0.2000E+02
  -3.967  0.4249E-08  0.2000E+02
  -3.957  0.4619E-08  0.2000E+02
  -3.947  0.5020E-08  0.2000E+02
  -3.937  0.5455E-08  0.2000E+02
  -3.927  0.5927E-08  0.2000E+02
  -3.917  0.6437E-08  0.2000E+02
  -3.907  0.6990E-08  0.2000E+02
  -3.897  0.7590E-08  0.2000E+02
  -3.887  0.8238E-08  0.2000E+02
  -3.877  0.8940E-08  0.2000E+02
  -3.867  0.9701E-08  0.2000E+02
  -3.857  0.1052E-07  0.2000E+02
  -3.847  0.1141E-07  0.2000E+02
  -3.837  0.1238E-07  0.2000E+02
  -3.827  0.1342E-07  0.2000E+02
  -3.817  0.1454E-07  0.2000E+02
  -3.807  0.1576E-07  0.2000E+02
  -3.797  0.1707E-07  0.2000E+02
  -3.787  0.1849E-07  0.2000E+02
  -3.777  0.2003E-07  0.2000E+02
  -3.767  0.2168E-07  0.2000E+02
  -3.757  0.2347E-07  0.2000E+02
  -3.747  0.2540E-07  0.2000E+02
  -3.737  0.2749E-07  0.2000E+02
  -3.727  0.2974E-07  0.2000E+02
  -3.717  0.3216E-07  0.2000E+02
  -3.707  0.3478E-07  0.2000E+02
  -3.697  0.3760E-07  0.2000E+02
  -3.687  0.4064E-07  0.2000E+02
  -3.677  0.4392E-07  0.2000E+02
  -3.667  0.4746E-07  0.2000E+02
  -3.657  0.5127E-07  0.2000E+02
  -3.647  0.5537E-07  0.2000E+02
  -3.637  0.5978E-07  0.2000E+02
  -3.627  0.6454E-07  0.2000E+02
  -3.617  0.6966E-07  0.2000E+02
  -3.607  0.7517E-07  0.2000E+02
  -3.597  0.8110E-07  0.2000E+02
  -3.587  0.8748E-07  0.2000E+02
  -3.577  0.9434E-07  0.2000E+02
  -3.567  0.1017E-06  0.2000E+02
  -3.557  0.1096E-06  0.2000E+02
  -3.547  0.1182E-06  0.2000E+02
  -3.537  0.1273E-06  0.2000E+02
  -3.527  0.1372E-06  0.2000E+02
  -3.517  0.1477E-06  0.2000E+02
  -3.507  0.1591E-06  0.2000E+02
  -3.497  0.1713E-06  0.2000E+02
  -3.487  0.1844E-06  0.2000E+02
  -3.477  0.1984E-06  0.2000E+02
  -3.467  0.2135E-06  0.2000E+02
  -3.457  0.2297E-06  0.2000E+02
  -3.447  0.2470E-06  0.2000E+02
  -3.437  0.2656E-06  0.2000E+02
  -3.427  0.2855E-06  0.2000E+02
  -3.417  0.3069E-06  0.2000E+02
  -3.407  0.3298E-06  0.2000E+02
  -3.397  0.3543E-06  0.2000E+02
  -3.387  0.3806E-06  0.2000E+02
  -3.377  0.4087E-06  0.2000E+02
  -3.367  0.4388E-06  0.2000E+02
  -3.357  0.4711E-06  0.2000E+02
  -3.347  0.5056E-06  0.2000E+02
  -3.337  0.5425E-06  0.2000E+02
  -3.327  0.5820E-06  0.2000E+02
  -3.317  0.6242E-06  0.2000E+02
  -3.307  0.6694E-06  0.2000E+02
  -3.297  0.7177E-06  0.2000E+02
  -3.287  0.7693E-06  0.2000E+02
  -3.277  0.8245E-06  0.2000E+02
  -3.267  0.8834E-06  0.2000E+02
  -3.257  0.9463E-06  0.2000E+02
  -3.247  0.1014E-05  0.2000E+02
  -3.237  0.1085E-05  0.2000E+02
  -3.227  0.1162E-05  0.2000E+02
  -3.217  0.1244E-05  0.2000E+02
  -3.207  0.1331E-05  0.2000E+02
  -3.197  0.1424E-05  0.2000E+02
  -3.187  0.1523E-05  0.2000E+02
  -3.177  0.1629E-05  0.2000E+02
  -3.167  0.1742E-05  0.2000E+02
  -3.157  0.1862E-05  0.2000E+02
  -3.147  0.1990E-05  0.2000E+02
  -3.137  0.2127E-05  0.2000E+02
  -3.127  0.2272E-05  0.2000E+02
  -3.117  0.2427E-05  0.2000E+02
  -3.107  0.2592E-05  0.2000E+02
  -3.097  0.2767E-05  0.2000E+02
  -3.087  0.2954E-05  0.2000E+02
  -3.077  0.3153E-05  0.2000E+02
  -3.067  0.3364E-05  0.2000E+02
  -3.057  0.3589E-05  0.2000E+02
  -3.047  0.3828E-05  0.2000E+02
  -3.037  0.4082E-05  0.2000E+02
  -3.027  0.4352E-05  0.2000E+02
  -3.017  0.4639E-05  0.2000E+02
  -3.007  0.4944E-05  0.2000E+02
  -2.997  0.5268E-05  0.2000E+02
  -2.987  0.5612E-05  0.2000E+02
  -2.977  0.5977E-05  0.2000E+02
  -2.967  0.6365E-05  0.2000E+02
  -2.957  0.6777E-05  0.2000E+02
  -2.947  0.7213E-05  0.2000E+02
  -2.937  0.7676E-05  0.2000E+02
  -2.927  0.8167E-05  0.2000E+02
  -2.917  0.8688E-05  0.2000E+02
  -2.907  0.9240E-05  0.2000E+02
  -2.897  0.9825E-05  0.2000E+02
  -2.887  0.1045E-04  0.2000E+02
  -2.877  0.1110E-04  0.2000E+02
  -2.867  0.1180E-04  0.2000E+02
  -2.857  0.1254E-04  0.2000E+02
  -2.847  0.1332E-04  0.2000E+02
  -2.837  0.1414E-04  0.2000E+02
  -2.827  0.1502E-04  0.2000E+02
  -2.817  0.1594E-04  0.2000E+02
  -2.807  0.1692E-04  0.2000E+02
  -2.797  0.1795E-04  0.2000E+02
  -2.787  0.1905E-04  0.2000E+02
  -2.777  0.2020E-04  0.2000E+02
  -2.767  0.2143E-04  0.2000E+02
  -2.757  0.2272E-04  0.2000E+02
  -2.747  0.2408E-04  0.2000E+02
  -2.737  0.2552E-04  0.2000E+02
  -2.727  0.2705E-04  0.2000E+02
  -2.717  0.2865E-04  0.2000E+02
  -2.707  0.3035E-04  0.2000E+02
  -2.697  0.3214E-04  0.2000E+02
  -2.687  0.3403E-04  0.2000E+02
  -2.677  0.3602E-04  0.2000E+02
  -2.667  0.3813E-04  0.2000E+02
  -2.657  0.4034E-04  0.2000E+02
  -2.647  0.4268E-04  0.2000E+02
  -2.637  0.4514E-04  0.2000E+02
  -2.627  0.4774E-04  0.2000E+02
  -2.617  0.5047E-04  0.2000E+02
  -2.607  0.5335E-04  0.2000E+02
  -2.597  0.5639E-04  0.2000E+02
  -2.587  0.5958E-04  0.2000E+02
  -2.577  0.6295E-04  0.2000E+02
  -2.567  0.6648E-04  0.2000E+02
  -2.557  0.7021E-04  0.2000E+02
  -2.547  0.7412E-04  0.2000E+02
  -2.537  0.7824E-04  0.2000E+02
  -2.527  0.8258E-04  0.2000E+02
  -2.517  0.8713E-04  0.2000E+02
  -2.507  0.9192E-04  0.2000E+02
  -2.497  0.9695E-04  0.2000E+02
  -2.487  0.1022E-03  0.2000E+02
  -2.477  0.1078E-03  0.2000E+02
  -2.467  0.1136E-03  0.2000E+02
  -2.457  0.1197E-03  0.2000E+02
  -2.447  0.1262E-03  0.2000E+02
  -2.437  0.1329E-03  0.2000E+02
  -2.427  0.1400E-03  0.2000E+02
  -2.417  0.1474E-03  0.2000E+02
  -2.407  0.1552E-03  0.2000E+02
  -2.397  0.1634E-03  0.2000E+02
  -2.387  0.1719E-03  0.2000E+02
  -2.377  0.1809E-03  0.2000E+02
  -2.367  0.1903E-03  0.2000E+02
  -2.357  0.2002E-03  0.2000E+02
  -2.347  0.2105E-03  0.2000E+02
  -2.337  0.2213E-03  0.2000E+02
  -2.327  0.2326E-03  0.2000E+02
  -2.317  0.2445E-03  0.2000E+02
  -2.307  0.2569E-03  0.2000E+02
  -2.297  0.2699E-03  0.2000E+02
  -2.287  0.2835E-03  0.2000E+02
  -2.277  0.2977E-03  0.2000E+02
  -2.267  0.3125E-03  0.2000E+02
  -2.257  0.3281E-03  0.2000E+02
  -2.247  0.3443E-03  0.2000E+02
  -2.237  0.3613E-03  0.2000E+02
  -2.227  0.3790E-03  0.2000E+02
  -2.217  0.3975E-03  0.2000E+02
  -2.207  0.4169E-03  0.2000E+02
  -2.197  0.4371E-03  0.2000E+02
  -2.187  0.4582E-03  0.2000E+02
  -2.177  0.4802E-03  0.2000E+02
  -2.167  0.5032E-03  0.2000E+02
  -2.157  0.5272E-03  0.2000E+02
  -2.147  0.5522E-03  0.2000E+02
  -2.137  0.5782E-03  0.2000E+02
  -2.127  0.6054E-03  0.2000E+02
  -2.117  0.6338E-03  0.2000E+02
  -2.107  0.6633E-03  0.2000E+02
  -2.097  0.6941E-03  0.2000E+02
  -2.087  0.7262E-03  0.2000E+02
  -2.077  0.7596E-03  0.2000E+02
  -2.067  0.7944E-03  0.2000E+02
  -2.057  0.8306E-03  0.2000E+02
  -2.047  0.8683E-03  0.2000E+02
  -2.037  0.9075E-03  0.2000E+02
  -2.027  0.9484E-03  0.2000E+02
  -2.017  0.9909E-03  0.2000E+02
  -2.007  0.1035E-02  0.2000E+02
  -1.997  0.1081E-02  0.2000E+02
  -1.987  0.1129E-02  0.2000E+02
  -1.977  0.1178E-02  0.2000E+02
  -1.967  0.1230E-02  0.2000E+02
  -1.957  0.1284E-02  0.2000E+02
  -1.947  0.1339E-02  0.2000E+02
  -1.937  0.1397E-02  0.2000E+02
  -1.927  0.1457E-02  0.2000E+02
  -1.917  0.1519E-02  0.2000E+02
  -1.907  0.1584E-02  0.2000E+02
  -1.897  0.1651E-02  0.2000E+02
  -1.887  0.1721E-02  0.2000E+02
  -1.877  0.1793E-02  0.2000E+02
  -1.867  0.1868E-02  0.2000E+02
  -1.857  0.1946E-02  0.2000E+02
  -1.847  0.2026E-02  0.2000E+02
  -1.837  0.2110E-02  0.2000E+02
  -1.827  0.2196E-02  0.2000E+02
  -1.817  0.2286E-02  0.2000E+02
  -1.807  0.2378E-02  0.2000E+02
  -1.797  0.2474E-02  0.2000E+02
  -1.787  0.2574E-02  0.2000E+02
  -1.777  0.2677E-02  0.2000E+02
  -1.767  0.2783E-02  0.2000E+02
  -1.757  0.2894E-02  0.2000E+02
  -1.747  0.3008E-02  0.2000E+02
  -1.737  0.3126E-02  0.2000E+02
  -1.727  0.3248E-02  0.2000E+02
  -1.717  0.3374E-02  0.2000E+02
  -1.707  0.3504E-02  0.2000E+02
  -1.697  0.3639E-02  0.2000E+02
  -1.687  0.3778E-02  0.2000E+02
  -1.677  0.3921E-02  0.2000E+02
  -1.667  0.4070E-02  0.2000E+02
  -1.657  0.4223E-02  0.2000E+02
  -1.647  0.4381E-02  0.2000E+02
  -1.637  0.4545E-02  0.2000E+02
  -1.627  0.4713E-02  0.2000E+02
  -1.617  0.4887E-02  0.2000E+02
  -1.607  0.5066E-02  0.2000E+02
  -1.597  0.5251E-02  0.2000E+02
  -1.587  0.5442E-02  0.2000E+02
  -1.577  0.5638E-02  0.2000E+02
  -1.567  0.5841E-02  0.2000E+02
  -1.557  0.6050E-02  0.2000E+02
  -1.547  0.6265E-02  0.2000E+02
  -1.537  0.6486E-02  0.2000E+02
  -1.527  0.6714E-02  0.2000E+02
  -1.517  0.6949E-02  0.2000E+02
  -1.507  0.7191E-02  0.2000E+02
  -1.497  0.7440E-02  0.2000E+02
  -1.487  0.7696E-02  0.2000E+02
  -1.477  0.7959E-02  0.2000E+02
  -1.467  0.8230E-02  0.2000E+02
  -1.457  0.8509E-02  0.2000E+02
  -1.447  0.8795E-02  0.2000E+02
  -1.437  0.9089E-02  0.2000E+02
  -1.427  0.9392E-02  0.2000E+02
  -1.417  0.9703E-02  0.2000E+02
  -1.407  0.1002E-01  0.2000E+02
  -1.397  0.1035E-01  0.2000E+02
  -1.387  0.1069E-01  0.2000E+02
  -1.377  0.1103E-01  0.2000E+02
  -1.367  0.1139E-01  0.2000E+02
  -1.357  0.1175E-01  0.2000E+02
  -1.347  0.1213E-01  0.2000E+02
  -1.337  0.1251E-01  0.2000E+02
  -1.327  0.1290E-01  0.2000E+02
  -1.317  0.1331E-01  0.2000E+02
  -1.307  0.1372E-01  0.2000E+02
  -1.297  0.1414E-01  0.2000E+02
  -1.287  0.1458E-01  0.2000E+02
  -1.277  0.1502E-01  0.2000E+02
  -1.267  0.1548E-01  0.2000E+02
  -1.257  0.1595E-01  0.2000E+02
  -1.247  0.1642E-01  0.2000E+02
  -1.237  0.1691E-01  0.2001E+02
  -1.227  0.1742E-01  0.2001E+02
  -1.217  0.1793E-01  0.2001E+02
  -1.207  0.1845E-01  0.2001E+02
  -1.197  0.1899E-01  0.2001E+02
  -1.187  0.1954E-01  0.2001E+02
  -1.177  0.2010E-01  0.2001E+02
  -1.167  0.2068E-01  0.2001E+02
  -1.157  0.2126E-01  0.2001E+02
  -1.147  0.2186E-01  0.2001E+02
  -1.137  0.2248E-01  0.2001E+02
  -1.127  0.2310E-01  0.2001E+02
  -1.117  0.2374E-01  0.2001E+02
  -1.107  0.2439E-01  0.2001E+02
  -1.097  0.2506E-01  0.2001E+02
  -1.087  0.2574E-01  0.2001E+02
  -1.077  0.2644E-01  0.2001E+02
  -1.067  0.2715E-01  0.2001E+02
  -1.057  0.2787E-01  0.2001E+02
  -1.047  0.2861E-01  0.2001E+02
  -1.037  0.2936E-01  0.2001E+02
  -1.027  0.3013E-01  0.2001E+02
  -1.017  0.3091E-01  0.2001E+02
  -1.007  0.3171E-01  0.2001E+02
  -0.997  0.3252E-01  0.2001E+02
  -0.987  0.3335E-01  0.2001E+02
  -0.977  0.3419E-01  0.2001E+02
  -0.967  0.3505E-01  0.2001E+02
  -0.957  0.3592E-01  0.2001E+02
  -0.947  0.3681E-01  0.2001E+02
  -0.937  0.3772E-01  0.2001E+02
  -0.927  0.3864E-01  0.2001E+02
  -0.917  0.3958E-01  0.2001E+02
  -0.907  0.4053E-01  0.2001E+02
  -0.897  0.4150E-01  0.2001E+02
  -0.887  0.4249E-01  0.2002E+02
  -0.877  0.4350E-01  0.2002E+02
  -0.867  0.4452E-01  0.2002E+02
  -0.857  0.4555E-01  0.2002E+02
  -0.847  0.4661E-01  0.2002E+02
  -0.837  0.4768E-01  0.2002E+02
  -0.827  0.4877E-01  0.2002E+02
  -0.817  0.4987E-01  0.2002E+02
  -0.807  0.5099E-01  0.2002E+02
  -0.797  0.5213E-01  0.2002E+02
  -0.787  0.5329E-01  0.2002E+02
  -0.777  0.5446E-01  0.2002E+02
  -0.767  0.5565E-01  0.2002E+02
  -0.757  0.5686E-01  0.2002E+02
  -0.747  0.5808E-01  0.2002E+02
  -0.737  0.5932E-01  0.2002E+02
  -0.727  0.6058E-01  0.2002E+02
  -0.717  0.6186E-01  0.2002E+02
  -0.707  0.6315E-01  0.2002E+02
  -0.697  0.6446E-01  0.2003E+02
  -0.687  0.6579E-01  0.2003E+02
  -0.677  0.6714E-01  0.2003E+02
  -0.667  0.6850E-01  0.2003E+02
  -0.657  0.6988E-01  0.2003E+02
  -0.647  0.7128E-01  0.2003E+02
  -0.637  0.7269E-01  0.2003E+02
  -0.627  0.7412E-01  0.2003E+02
  -0.617  0.7557E-01  0.2003E+02
  -0.607  0.7704E-01  0.2003E+02
  -0.597  0.7852E-01  0.2003E+02
  -0.587  0.8002E-01  0.2003E+02
  -0.577  0.8153E-01  0.2003E+02
  -0.567  0.8307E-01  0.2003E+02
  -0.557  0.8462E-01  0.2004E+02
  -0.547  0.8618E-01  0.2004E+02
  -0.537  0.8777E-01  0.2004E+02
  -0.527  0.8937E-01  0.2004E+02
  -0.517  0.9098E-01  0.2004E+02
  -0.507  0.9261E-01  0.2004E+02
  -0.497  0.9426E-01  0.2004E+02
  -0.487  0.9592E-01  0.2004E+02
  -0.477  0.9760E-01  0.2004E+02
  -0.467  0.9930E-01  0.2004E+02
  -0.457  0.1010E+00  0.2005E+02
  -0.447  0.1027E+00  0.2005E+02
  -0.437  0.1045E+00  0.2005E+02
  -0.427  0.1062E+00  0.2005E+02
  -0.417  0.1080E+00  0.2005E+02
  -0.407  0.1098E+00  0.2005E+02
  -0.397  0.1116E+00  0.2005E+02
  -0.387  0.1134E+00  0.2005E+02
  -0.377  0.1152E+00  0.2005E+02
  -0.367  0.1171E+00  0.2005E+02
  -0.357  0.1189E+00  0.2006E+02
  -0.347  0.1208E+00  0.2006E+02
  -0.337  0.1227E+00  0.2006E+02
  -0.327  0.1246E+00  0.2006E+02
  -0.317  0.1265E+00  0.2006E+02
  -0.307  0.1284E+00  0.2006E+02
  -0.297  0.1304E+00  0.2006E+02
  -0.287  0.1323E+00  0.2006E+02
  -0.277  0.1343E+00  0.2007E+02
  -0.267  0.1362E+00  0.2007E+02
  -0.257  0.1382E+00  0.2007E+02
  -0.247  0.1402E+00  0.2007E+02
  -0.237  0.1422E+00  0.2007E+02
  -0.227  0.1442E+00  0.2007E+02
  -0.217  0.1463E+00  0.2007E+02
  -0.207  0.1483E+00  0.2008E+02
  -0.197  0.1504E+00  0.2008E+02
  -0.187  0.1524E+00  0.2008E+02
  -0.177  0.1545E+00  0.2008E+02
  -0.167  0.1566E+00  0.2008E+02
  -0.157  0.1586E+00  0.2008E+02
  -0.147  0.1607E+00  0.2009E+02
  -0.137  0.1628E+00  0.2009E+02
  -0.127  0.1650E+00  0.2009E+02
  -0.117  0.1671E+00  0.2009E+02
  -0.107  0.1692E+00  0.2009E+02
  -0.097  0.1714E+00  0.2009E+02
  -0.087  0.1735E+00  0.2010E+02
  -0.077  0.1756E+00  0.2010E+02
  -0.067  0.1778E+00  0.2010E+02
  -0.057  0.1800E+00  0.2010E+02
  -0.047  0.1821E+00  0.2010E+02
  -0.037  0.1843E+00  0.2010E+02
  -0.027  0.1865E+00  0.2011E+02
  -0.017  0.1887E+00  0.2011E+02
  -0.007  0.1909E+00  0.2011E+02
   0.003  0.1931E+00  0.2011E+02
   0.013  0.1953E+00  0.2011E+02
   0.023  0.1975E+00  0.2012E+02
   0.033  0.1997E+00  0.2012E+02
   0.043  0.2019E+00  0.2012E+02
   0.053  0.2042E+00  0.2012E+02
   0.063  0.2064E+00  0.2012E+02
   0.073  0.2086E+00  0.2013E+02
   0.083  0.2108E+00  0.2013E+02
   0.093  0.2131E+00  0.2013E+02
   0.103  0.2153E+00  0.2013E+02
   0.113  0.2176E+00  0.2013E+02
   0.123  0.2198E+00  0.2014E+02
   0.133  0.2220E+00  0.2014E+02
   0.143  0.2243E+00  0.2014E+02
   0.153  0.2265E+00  0.2014E+02
   0.163  0.2288E+00  0.2015E+02
   0.173  0.2310E+00  0.2015E+02
   0.183  0.2333E+00  0.2015E+02
   0.193  0.2355E+00  0.2015E+02
   0.203  0.2378E+00  0.2016E+02
   0.213  0.2400E+00  0.2016E+02
   0.223  0.2423E+00  0.2016E+02
   0.233  0.2445E+00  0.2016E+02
   0.243  0.2467E+00  0.2017E+02
   0.253  0.2490E+00  0.2017E+02
   0.263  0.2512E+00  0.2017E+02
   0.273  0.2535E+00  0.2017E+02
   0.283  0.2557E+00  0.2018E+02
   0.293  0.2580E+00  0.2018E+02
   0.303  0.2602E+00  0.2018E+02
   0.313  0.2624E+00  0.2018E+02
   0.323  0.2647E+00  0.2019E+02
   0.333  0.2669E+00  0.2019E+02
   0.343  0.2691E+00  0.2019E+02
   0.353  0.2713E+00  0.2019E+02
   0.363  0.2736E+00  0.2020E+02
   0.373  0.2758E+00  0.2020E+02
   0.383  0.2780E+00  0.2020E+02
   0.393  0.2802E+00  0.2020E+02
   0.403  0.2824E+00  0.2021E+02
   0.413  0.2846E+00  0.2021E+02
   0.423  0.2868E+00  0.2021E+02
   0.433  0.2890E+00  0.2022E+02
   0.443  0.2912E+00  0.2022E+02
   0.453  0.2934E+00  0.2022E+02
   0.463  0.2956E+00  0.2023E+02
   0.473  0.2977E+00  0.2023E+02
   0.483  0.2999E+00  0.2023E+02
   0.493  0.3021E+00  0.2023E+02
   0.503  0.3042E+00  0.2024E+02
   0.513  0.3064E+00  0.2024E+02
   0.523  0.3085E+00  0.2024E+02
   0.533  0.3107E+00  0.2025E+02
   0.543  0.3128E+00  0.2025E+02
   0.553  0.3150E+00  0.2025E+02
   0.563  0.3171E+00  0.2026E+02
   0.573  0.3192E+00  0.2026E+02
   0.583  0.3213E+00  0.2026E+02
   0.593  0.3235E+00  0.2027E+02
   0.603  0.3256E+00  0.2027E+02
   0.613  0.3277E+00  0.2027E+02
   0.623  0.3298E+00  0.2028E+02
   0.633  0.3319E+00  0.2028E+02
   0.643  0.3339E+00  0.2028E+02
   0.653  0.3360E+00  0.2029E+02
   0.663  0.3381E+00  0.2029E+02
   0.673  0.3402E+00  0.2029E+02
   0.683  0.3422E+00  0.2030E+02
   0.693  0.3443E+00  0.2030E+02
   0.703  0.3463E+00  0.2030E+02
   0.713  0.3484E+00  0.2031E+02
   0.723  0.3504E+00  0.2031E+02
   0.733  0.3524E+00  0.2031E+02
   0.743  0.3544E+00  0.2032E+02
   0.753  0.3565E+00  0.2032E+02
   0.763  0.3585E+00  0.2032E+02
   0.773  0.3605E+00  0.2033E+02
   0.783  0.3625E+00  0.2033E+02
   0.793  0.3645E+00  0.2033E+02
   0.803  0.3665E+00  0.2034E+02
   0.813  0.3684E+00  0.2034E+02
   0.823  0.3704E+00  0.2035E+02
   0.833  0.3724E+00  0.2035E+02
   0.843  0.3743E+00  0.2035E+02
   0.853  0.3763E+00  0.2036E+02
   0.863  0.3782E+00  0.2036E+02
   0.873  0.3802E+00  0.2036E+02
   0.883  0.3821E+00  0.2037E+02
   0.893  0.3840E+00  0.2037E+02
   0.903  0.3860E+00  0.2038E+02
   0.913  0.3879E+00  0.2038E+02
   0.923  0.3898E+00  0.2038E+02
   0.933  0.3917E+00  0.2039E+02
   0.943  0.3936E+00  0.2039E+02
   0.953  0.3955E+00  0.2040E+02
   0.963  0.3974E+00  0.2040E+02
   0.973  0.3993E+00  0.2040E+02
   0.983  0.4012E+00  0.2041E+02
   0.993  0.4030E+00  0.2041E+02
   1.003  0.4049E+00  0.2042E+02
   1.013  0.4068E+00  0.2042E+02
   1.023  0.4086E+00  0.2042E+02
   1.033  0.4105E+00  0.2043E+02
   1.043  0.4123E+00  0.2043E+02
   1.053  0.4142E+00  0.2044E+02
   1.063  0.4160E+00  0.2044E+02
   1.073  0.4178E+00  0.2044E+02
   1.083  0.4197E+00  0.2045E+02
   1.093  0.4215E+00  0.2045E+02
   1.103  0.4233E+00  0.2046E+02
   1.113  0.4251E+00  0.2046E+02
   1.123  0.4269E+00  0.2047E+02
   1.133  0.4287E+00  0.2047E+02
   1.143  0.4305E+00  0.2047E+02
   1.153  0.4323E+00  0.2048E+02
   1.163  0.4341E+00  0.2048E+02
   1.173  0.4359E+00  0.2049E+02
   1.183  0.4377E+00  0.2049E+02
   1.193  0.4395E+00  0.2050E+02
   1.203  0.4412E+00  0.2050E+02
   1.213  0.4430E+00  0.2050E+02
   1.223  0.4448E+00  0.2051E+02
   1.233  0.4465E+00  0.2051E+02
   1.243  0.4483E+00  0.2052E+02
   1.253  0.4501E+00  0.2052E+02
   1.263  0.4518E+00  0.2053E+02
   1.273  0.4536E+00  0.2053E+02
   1.283  0.4553E+00  0.2054E+02
   1.293  0.4570E+00  0.2054E+02
   1.303  0.4588E+00  0.2055E+02
   1.313  0.4605E+00  0.2055E+02
   1.323  0.4623E+00  0.2055E+02
   1.333  0.4640E+00  0.2056E+02
   1.343  0.4657E+00  0.2056E+02
   1.353  0.4675E+00  0.2057E+02
   1.363  0.4692E+00  0.2057E+02
   1.373  0.4709E+00  0.2058E+02
   1.383  0.4726E+00  0.2058E+02
   1.393  0.4744E+00  0.2059E+02
   1.403  0.4761E+00  0.2059E+02
   1.413  0.4778E+00  0.2060E+02
   1.423  0.4795E+00  0.2060E+02
   1.433  0.4812E+00  0.2061E+02
   1.443  0.4829E+00  0.2061E+02
   1.453  0.4846E+00  0.2062E+02
   1.463  0.4864E+00  0.2062E+02
   1.473  0.4881E+00  0.2063E+02
   1.483  0.4898E+00  0.2063E+02
   1.493  0.4915E+00  0.2064E+02
   1.503  0.4932E+00  0.2064E+02
   1.513  0.4949E+00  0.2065E+02
   1.523  0.4966E+00  0.2065E+02
   1.533  0.4983E+00  0.2066E+02
   1.543  0.5000E+00  0.2066E+02
   1.553  0.5017E+00  0.2067E+02
   1.563  0.5034E+00  0.2067E+02
   1.573  0.5051E+00  0.2068E+02
   1.583  0.5068E+00  0.2068E+02
   1.593  0.5085E+00  0.2069E+02
   1.603  0.5102E+00  0.2069E+02
   1.613  0.5119E+00  0.2070E+02
   1.623  0.5136E+00  0.2070E+02
   1.633  0.5153E+00  0.2071E+02
   1.643  0.5170E+00  0.2071E+02
   1.653  0.5187E+00  0.2072E+02
   1.663  0.5204E+00  0.2072E+02
   1.673  0.5221E+00  0.2073E+02
   1.683  0.5239E+00  0.2073E+02
   1.693  0.5256E+00  0.2074E+02
   1.703  0.5273E+00  0.2074E+02
   1.713  0.5290E+00  0.2075E+02
   1.723  0.5307E+00  0.2075E+02
   1.733  0.5324E+00  0.2076E+02
   1.743  0.5341E+00  0.2076E+02
   1.753  0.5358E+00  0.2077E+02
   1.763  0.5376E+00  0.2078E+02
   1.773  0.5393E+00  0.2078E+02
   1.783  0.5410E+00  0.2079E+02
   1.793  0.5427E+00  0.2079E+02
   1.803  0.5445E+00  0.2080E+02
   1.813  0.5462E+00  0.2080E+02
   1.823  0.5479E+00  0.2081E+02
   1.833  0.5497E+00  0.2081E+02
   1.843  0.5514E+00  0.2082E+02
   1.853  0.5531E+00  0.2082E+02
   1.863  0.5549E+00  0.2083E+02
   1.873  0.5566E+00  0.2084E+02
   1.883  0.5584E+00  0.2084E+02
   1.893  0.5601E+00  0.2085E+02
   1.903  0.5619E+00  0.2085E+02
   1.913  0.5636E+00  0.2086E+02
   1.923  0.5654E+00  0.2086E+02
   1.933  0.5672E+00  0.2087E+02
   1.943  0.5689E+00  0.2087E+02
   1.953  0.5707E+00  0.2088E+02
   1.963  0.5725E+00  0.2089E+02
   1.973  0.5742E+00  0.2089E+02
   1.983  0.5760E+00  0.2090E+02
   1.993  0.5778E+00  0.2090E+02
   2.003  0.5796E+00  0.2091E+02
   2.013  0.5814E+00  0.2092E+02
   2.023  0.5832E+00  0.2092E+02
   2.033  0.5850E+00  0.2093E+02
   2.043  0.5868E+00  0.2093E+02
   2.053  0.5886E+00  0.2094E+02
   2.063  0.5904E+00  0.2094E+02
   2.073  0.5922E+00  0.2095E+02
   2.083  0.5940E+00  0.2096E+02
   2.093  0.5959E+00  0.2096E+02
   2.103  0.5977E+00  0.2097E+02
   2.113  0.5995E+00  0.2097E+02
   2.123  0.6014E+00  0.2098E+02
   2.133  0.6032E+00  0.2099E+02
   2.143  0.6050E+00  0.2099E+02
   2.153  0.6069E+00  0.2100E+02
   2.163  0.6087E+00  0.2100E+02
   2.173  0.6106E+00  0.2101E+02
   2.183  0.6124E+00  0.2102E+02
   2.193  0.6143E+00  0.2102E+02
   2.203  0.6162E+00  0.2103E+02
   2.213  0.6181E+00  0.2104E+02
   2.223  0.6199E+00  0.2104E+02
   2.233  0.6218E+00  0.2105E+02
   2.243  0.6237E+00  0.2105E+02
   2.253  0.6256E+00  0.2106E+02
   2.263  0.6275E+00  0.2107E+02
   2.273  0.6294E+00  0.2107E+02
   2.283  0.6313E+00  0.2108E+02
   2.293  0.6332E+00  0.2109E+02
   2.303  0.6351E+00  0.2109E+02
   2.313  0.6370E+00  0.2110E+02
   2.323  0.6389E+00  0.2110E+02
   2.333  0.6408E+00  0.2111E+02
   2.343  0.6428E+00  0.2112E+02
   2.353  0.6447E+00  0.2112E+02
   2.363  0.6466E+00  0.2113E+02
   2.373  0.6485E+00  0.2114E+02
   2.383  0.6505E+00  0.2114E+02
   2.393  0.6524E+00  0.2115E+02
   2.403  0.6544E+00  0.2116E+02
   2.413  0.6563E+00  0.2116E+02
   2.423  0.6583E+00  0.2117E+02
   2.433  0.6602E+00  0.2118E+02
   2.443  0.6622E+00  0.2118E+02
   2.453  0.6641E+00  0.2119E+02
   2.463  0.6661E+00  0.2120E+02
   2.473  0.6680E+00  0.2120E+02
   2.483  0.6700E+00  0.2121E+02
   2.493  0.6720E+00  0.2122E+02
   2.503  0.6739E+00  0.2122E+02
   2.513  0.6759E+00  0.2123E+02
   2.523  0.6779E+00  0.2124E+02
   2.533  0.6798E+00  0.2124E+02
   2.543  0.6818E+00  0.2125E+02
   2.553  0.6838E+00  0.2126E+02
   2.563  0.6858E+00  0.2126E+02
   2.573  0.6877E+00  0.2127E+02
   2.583  0.6897E+00  0.2128E+02
   2.593  0.6917E+00  0.2128E+02
   2.603  0.6937E+00  0.2129E+02
   2.613  0.6956E+00  0.2130E+02
   2.623  0.6976E+00  0.2131E+02
   2.633  0.6996E+00  0.2131E+02
   2.643  0.7015E+00  0.2132E+02
   2.653  0.7035E+00  0.2133E+02
   2.663  0.7055E+00  0.2133E+02
   2.673  0.7074E+00  0.2134E+02
   2.683  0.7094E+00  0.2135E+02
   2.693  0.7113E+00  0.2135E+02
   2.703  0.7133E+00  0.2136E+02
   2.713  0.7152E+00  0.2137E+02
   2.723  0.7172E+00  0.2138E+02
   2.733  0.7191E+00  0.2138E+02
   2.743  0.7211E+00  0.2139E+02
   2.753  0.7230E+00  0.2140E+02
   2.763  0.7249E+00  0.2141E+02
   2.773  0.7268E+00  0.2141E+02
   2.783  0.7288E+00  0.2142E+02
   2.793  0.7307E+00  0.2143E+02
   2.803  0.7326E+00  0.2143E+02
   2.813  0.7345E+00  0.2144E+02
   2.823  0.7364E+00  0.2145E+02
   2.833  0.7382E+00  0.2146E+02
   2.843  0.7401E+00  0.2146E+02
   2.853  0.7420E+00  0.2147E+02
   2.863  0.7438E+00  0.2148E+02
   2.873  0.7457E+00  0.2149E+02
   2.883  0.7475E+00  0.2149E+02
   2.893  0.7493E+00  0.2150E+02
   2.903  0.7511E+00  0.2151E+02
   2.913  0.7529E+00  0.2152E+02
   2.923  0.7547E+00  0.2152E+02
   2.933  0.7565E+00  0.2153E+02
   2.943  0.7583E+00  0.2154E+02
   2.953  0.7600E+00  0.2155E+02
   2.963  0.7618E+00  0.2155E+02
   2.973  0.7635E+00  0.2156E+02
   2.983  0.7652E+00  0.2157E+02
   2.993  0.7669E+00  0.2158E+02
   3.003  0.7686E+00  0.2158E+02
   3.013  0.7702E+00  0.2159E+02
   3.023  0.7719E+00  0.2160E+02
   3.033  0.7735E+00  0.2161E+02
   3.043  0.7751E+00  0.2162E+02
   3.053  0.7767E+00  0.2162E+02
   3.063  0.7783E+00  0.2163E+02
   3.073  0.7798E+00  0.2164E+02
   3.083  0.7814E+00  0.2165E+02
   3.093  0.7829E+00  0.2165E+02
   3.103  0.7844E+00  0.2166E+02
   3.113  0.7859E+00  0.2167E+02
   3.123  0.7873E+00  0.2168E+02
   3.133  0.7887E+00  0.2169E+02
   3.143  0.7901E+00  0.2169E+02
   3.153  0.7915E+00  0.2170E+02
   3.163  0.7929E+00  0.2171E+02
   3.173  0.7942E+00  0.2172E+02
   3.183  0.7955E+00  0.2173E+02
   3.193  0.7968E+00  0.2173E+02
   3.203  0.7981E+00  0.2174E+02
   3.213  0.7993E+00  0.2175E+02
   3.223  0.8005E+00  0.2176E+02
   3.233  0.8017E+00  0.2177E+02
   3.243  0.8029E+00  0.2177E+02
   3.253  0.8040E+00  0.2178E+02
   3.263  0.8051E+00  0.2179E+02
   3.273  0.8062E+00  0.2180E+02
   3.283  0.8072E+00  0.2181E+02
   3.293  0.8082E+00  0.2181E+02
   3.303  0.8092E+00  0.2182E+02
   3.313  0.8101E+00  0.2183E+02
   3.323  0.8111E+00  0.2184E+02
   3.333  0.8119E+00  0.2185E+02
   3.343  0.8128E+00  0.2185E+02
   3.353  0.8136E+00  0.2186E+02
   3.363  0.8144E+00  0.2187E+02
   3.373  0.8151E+00  0.2188E+02
   3.383  0.8159E+00  0.2189E+02
   3.393  0.8166E+00  0.2190E+02
   3.403  0.8172E+00  0.2190E+02
   3.413  0.8178E+00  0.2191E+02
   3.423  0.8184E+00  0.2192E+02
   3.433  0.8189E+00  0.2193E+02
   3.443  0.8195E+00  0.2194E+02
   3.453  0.8199E+00  0.2194E+02
   3.463  0.8204E+00  0.2195E+02
   3.473  0.8208E+00  0.2196E+02
   3.483  0.8211E+00  0.2197E+02
   3.493  0.8215E+00  0.2198E+02
   3.503  0.8217E+00  0.2199E+02
   3.513  0.8220E+00  0.2199E+02
   3.523  0.8222E+00  0.2200E+02
   3.533  0.8224E+00  0.2201E+02
   3.543  0.8225E+00  0.2202E+02
   3.553  0.8226E+00  0.2203E+02
   3.563  0.8227E+00  0.2203E+02
   3.573  0.8227E+00  0.2204E+02
   3.583  0.8227E+00  0.2205E+02
   3.593  0.8226E+00  0.2206E+02
   3.603  0.8225E+00  0.2207E+02
   3.613  0.8224E+00  0.2208E+02
   3.623  0.8222E+00  0.2208E+02
   3.633  0.8220E+00  0.2209E+02
   3.643  0.8217E+00  0.2210E+02
   3.653  0.8214E+00  0.2211E+02
   3.663  0.8211E+00  0.2212E+02
   3.673  0.8207E+00  0.2213E+02
   3.683  0.8203E+00  0.2213E+02
   3.693  0.8199E+00  0.2214E+02
   3.703  0.8194E+00  0.2215E+02
   3.713  0.8188E+00  0.2216E+02
   3.723  0.8183E+00  0.2217E+02
   3.733  0.8177E+00  0.2217E+02
   3.743  0.8170E+00  0.2218E+02
   3.753  0.8163E+00  0.2219E+02
   3.763  0.8156E+00  0.2220E+02
   3.773  0.8148E+00  0.2221E+02
   3.783  0.8140E+00  0.2222E+02
   3.793  0.8132E+00  0.2222E+02
   3.803  0.8123E+00  0.2223E+02
   3.813  0.8114E+00  0.2224E+02
   3.823  0.8104E+00  0.2225E+02
   3.833  0.8094E+00  0.2226E+02
   3.843  0.8084E+00  0.2226E+02
   3.853  0.8074E+00  0.2227E+02
   3.863  0.8063E+00  0.2228E+02
   3.873  0.8051E+00  0.2229E+02
   3.883  0.8040E+00  0.2230E+02
   3.893  0.8028E+00  0.2230E+02
   3.903  0.8015E+00  0.2231E+02
   3.913  0.8002E+00  0.2232E+02
   3.923  0.7989E+00  0.2233E+02
   3.933  0.7976E+00  0.2234E+02
   3.943  0.7962E+00  0.2234E+02
   3.953  0.7948E+00  0.2235E+02
   3.963  0.7934E+00  0.2236E+02
   3.973  0.7919E+00  0.2237E+02
   3.983  0.7905E+00  0.2238E+02
   3.993  0.7889E+00  0.2238E+02
   4.003  0.7874E+00  0.2239E+02
   4.013  0.7858E+00  0.2240E+02
   4.023  0.7842E+00  0.2241E+02
   4.033  0.7826E+00  0.2241E+02
   4.043  0.7809E+00  0.2242E+02
   4.053  0.7792E+00  0.2243E+02
   4.063  0.7775E+00  0.2244E+02
   4.073  0.7758E+00  0.2245E+02
   4.083  0.7740E+00  0.2245E+02
   4.093  0.7722E+00  0.2246E+02
   4.103  0.7704E+00  0.2247E+02
   4.113  0.7686E+00  0.2248E+02
   4.123  0.7667E+00  0.2248E+02
   4.133  0.7648E+00  0.2249E+02
   4.143  0.7630E+00  0.2250E+02
   4.153  0.7610E+00  0.2251E+02
   4.163  0.7591E+00  0.2252E+02
   4.173  0.7572E+00  0.2252E+02
   4.183  0.7552E+00  0.2253E+02
   4.193  0.7532E+00  0.2254E+02
   4.203  0.7512E+00  0.2255E+02
   4.213  0.7492E+00  0.2255E+02
   4.223  0.7472E+00  0.2256E+02
   4.233  0.7451E+00  0.2257E+02
   4.243  0.7431E+00  0.2258E+02
   4.253  0.7410E+00  0.2258E+02
   4.263  0.7389E+00  0.2259E+02
   4.273  0.7369E+00  0.2260E+02
   4.283  0.7348E+00  0.2260E+02
   4.293  0.7327E+00  0.2261E+02
   4.303  0.7305E+00  0.2262E+02
   4.313  0.7284E+00  0.2263E+02
   4.323  0.7263E+00  0.2263E+02
   4.333  0.7242E+00  0.2264E+02
   4.343  0.7220E+00  0.2265E+02
   4.353  0.7199E+00  0.2266E+02
   4.363  0.7177E+00  0.2266E+02
   4.373  0.7156E+00  0.2267E+02
   4.383  0.7134E+00  0.2268E+02
   4.393  0.7113E+00  0.2268E+02
   4.403  0.7091E+00  0.2269E+02
   4.413  0.7070E+00  0.2270E+02
   4.423  0.7048E+00  0.2271E+02
   4.433  0.7026E+00  0.2271E+02
   4.443  0.7005E+00  0.2272E+02
   4.453  0.6983E+00  0.2273E+02
   4.463  0.6962E+00  0.2273E+02
   4.473  0.6940E+00  0.2274E+02
   4.483  0.6919E+00  0.2275E+02
   4.493  0.6898E+00  0.2275E+02
   4.503  0.6876E+00  0.2276E+02
   4.513  0.6855E+00  0.2277E+02
   4.523  0.6834E+00  0.2277E+02
   4.533  0.6813E+00  0.2278E+02
   4.543  0.6792E+00  0.2279E+02
   4.553  0.6771E+00  0.2279E+02
   4.563  0.6750E+00  0.2280E+02
   4.573  0.6729E+00  0.2281E+02
   4.583  0.6708E+00  0.2282E+02
   4.593  0.6687E+00  0.2282E+02
   4.603  0.6667E+00  0.2283E+02
   4.613  0.6646E+00  0.2284E+02
   4.623  0.6626E+00  0.2284E+02
   4.633  0.6606E+00  0.2285E+02
   4.643  0.6586E+00  0.2285E+02
   4.653  0.6566E+00  0.2286E+02
   4.663  0.6546E+00  0.2287E+02
   4.673  0.6526E+00  0.2287E+02
   4.683  0.6507E+00  0.2288E+02
   4.693  0.6487E+00  0.2289E+02
   4.703  0.6468E+00  0.2289E+02
   4.713  0.6449E+00  0.2290E+02
   4.723  0.6430E+00  0.2291E+02
   4.733  0.6411E+00  0.2291E+02
   4.743  0.6392E+00  0.2292E+02
   4.753  0.6373E+00  0.2293E+02
   4.763  0.6355E+00  0.2293E+02
   4.773  0.6337E+00  0.2294E+02
   4.783  0.6318E+00  0.2295E+02
   4.793  0.6300E+00  0.2295E+02
   4.803  0.6283E+00  0.2296E+02
   4.813  0.6265E+00  0.2296E+02
   4.823  0.6247E+00  0.2297E+02
   4.833  0.6230E+00  0.2298E+02
   4.843  0.6213E+00  0.2298E+02
   4.853  0.6196E+00  0.2299E+02
   4.863  0.6179E+00  0.2299E+02
   4.873  0.6162E+00  0.2300E+02
   4.883  0.6146E+00  0.2301E+02
   4.893  0.6129E+00  0.2301E+02
   4.903  0.6113E+00  0.2302E+02
   4.913  0.6097E+00  0.2303E+02
   4.923  0.6081E+00  0.2303E+02
   4.933  0.6065E+00  0.2304E+02
   4.943  0.6050E+00  0.2304E+02
   4.953  0.6034E+00  0.2305E+02
   4.963  0.6019E+00  0.2306E+02
   4.973  0.6004E+00  0.2306E+02
   4.983  0.5989E+00  0.2307E+02
   4.993  0.5974E+00  0.2307E+02
   5.003  0.5959E+00  0.2308E+02
   5.013  0.5945E+00  0.2309E+02
   5.023  0.5931E+00  0.2309E+02
   5.033  0.5916E+00  0.2310E+02
   5.043  0.5902E+00  0.2310E+02
   5.053  0.5888E+00  0.2311E+02
   5.063  0.5875E+00  0.2312E+02
   5.073  0.5861E+00  0.2312E+02
   5.083  0.5848E+00  0.2313E+02
   5.093  0.5835E+00  0.2313E+02
   5.103  0.5821E+00  0.2314E+02
   5.113  0.5808E+00  0.2314E+02
   5.123  0.5796E+00  0.2315E+02
   5.133  0.5783E+00  0.2316E+02
   5.143  0.5770E+00  0.2316E+02
   5.153  0.5758E+00  0.2317E+02
   5.163  0.5746E+00  0.2317E+02
   5.173  0.5733E+00  0.2318E+02
   5.183  0.5721E+00  0.2318E+02
   5.193  0.5710E+00  0.2319E+02
   5.203  0.5698E+00  0.2320E+02
   5.213  0.5686E+00  0.2320E+02
   5.223  0.5675E+00  0.2321E+02
   5.233  0.5663E+00  0.2321E+02
   5.243  0.5652E+00  0.2322E+02
   5.253  0.5641E+00  0.2322E+02
   5.263  0.5630E+00  0.2323E+02
   5.273  0.5619E+00  0.2324E+02
   5.283  0.5609E+00  0.2324E+02
   5.293  0.5598E+00  0.2325E+02
   5.303  0.5587E+00  0.2325E+02
   5.313  0.5577E+00  0.2326E+02
   5.323  0.5567E+00  0.2326E+02
   5.333  0.5557E+00  0.2327E+02
   5.343  0.5547E+00  0.2327E+02
   5.353  0.5537E+00  0.2328E+02
   5.363  0.5527E+00  0.2329E+02
   5.373  0.5517E+00  0.2329E+02
   5.383  0.5508E+00  0.2330E+02
   5.393  0.5499E+00  0.2330E+02
   5.403  0.5489E+00  0.2331E+02
   5.413  0.5480E+00  0.2331E+02
   5.423  0.5471E+00  0.2332E+02
   5.433  0.5462E+00  0.2332E+02
   5.443  0.5453E+00  0.2333E+02
   5.453  0.5445E+00  0.2334E+02
   5.463  0.5436E+00  0.2334E+02
   5.473  0.5428E+00  0.2335E+02
   5.483  0.5419E+00  0.2335E+02
   5.493  0.5411E+00  0.2336E+02
   5.503  0.5403E+00  0.2336E+02
   5.513  0.5395E+00  0.2337E+02
   5.523  0.5387E+00  0.2337E+02
   5.533  0.5379E+00  0.2338E+02
   5.543  0.5372E+00  0.2338E+02
   5.553  0.5364E+00  0.2339E+02
   5.563  0.5357E+00  0.2339E+02
   5.573  0.5350E+00  0.2340E+02
   5.583  0.5343E+00  0.2341E+02
   5.593  0.5336E+00  0.2341E+02
   5.603  0.5329E+00  0.2342E+02
   5.613  0.5322E+00  0.2342E+02
   5.623  0.5316E+00  0.2343E+02
   5.633  0.5309E+00  0.2343E+02
   5.643  0.5303E+00  0.2344E+02
   5.653  0.5297E+00  0.2344E+02
   5.663  0.5291E+00  0.2345E+02
   5.673  0.5285E+00  0.2345E+02
   5.683  0.5280E+00  0.2346E+02
   5.693  0.5274E+00  0.2346E+02
   5.703  0.5269E+00  0.2347E+02
   5.713  0.5264E+00  0.2347E+02
   5.723  0.5259E+00  0.2348E+02
   5.733  0.5254E+00  0.2348E+02
   5.743  0.5250E+00  0.2349E+02
   5.753  0.5245E+00  0.2350E+02
   5.763  0.5241E+00  0.2350E+02
   5.773  0.5237E+00  0.2351E+02
   5.783  0.5233E+00  0.2351E+02
   5.793  0.5229E+00  0.2352E+02
   5.803  0.5226E+00  0.2352E+02
   5.813  0.5222E+00  0.2353E+02
   5.823  0.5219E+00  0.2353E+02
   5.833  0.5216E+00  0.2354E+02
   5.843  0.5214E+00  0.2354E+02
   5.853  0.5211E+00  0.2355E+02
   5.863  0.5209E+00  0.2355E+02
   5.873  0.5207E+00  0.2356E+02
   5.883  0.5205E+00  0.2356E+02
   5.893  0.5204E+00  0.2357E+02
   5.903  0.5202E+00  0.2357E+02
   5.913  0.5201E+00  0.2358E+02
   5.923  0.5200E+00  0.2358E+02
   5.933  0.5200E+00  0.2359E+02
   5.943  0.5199E+00  0.2359E+02
   5.953  0.5199E+00  0.2360E+02
   5.963  0.5199E+00  0.2360E+02
   5.973  0.5200E+00  0.2361E+02
   5.983  0.5200E+00  0.2361E+02
   5.993  0.5201E+00  0.2362E+02
   6.003  0.5203E+00  0.2363E+02
   6.013  0.5204E+00  0.2363E+02
   6.023  0.5206E+00  0.2364E+02
   6.033  0.5208E+00  0.2364E+02
   6.043  0.5210E+00  0.2365E+02
   6.053  0.5213E+00  0.2365E+02
   6.063  0.5215E+00  0.2366E+02
   6.073  0.5219E+00  0.2366E+02
   6.083  0.5222E+00  0.2367E+02
   6.093  0.5226E+00  0.2367E+02
   6.103  0.5230E+00  0.2368E+02
   6.113  0.5234E+00  0.2368E+02
   6.123  0.5239E+00  0.2369E+02
   6.133  0.5244E+00  0.2369E+02
   6.143  0.5249E+00  0.2370E+02
   6.153  0.5255E+00  0.2370E+02
   6.163  0.5261E+00  0.2371E+02
   6.173  0.5267E+00  0.2371E+02
   6.183  0.5273E+00  0.2372E+02
   6.193  0.5280E+00  0.2372E+02
   6.203  0.5287E+00  0.2373E+02
   6.213  0.5295E+00  0.2374E+02
   6.223  0.5303E+00  0.2374E+02
   6.233  0.5311E+00  0.2375E+02
   6.243  0.5319E+00  0.2375E+02
   6.253  0.5328E+00  0.2376E+02
   6.263  0.5337E+00  0.2376E+02
   6.273  0.5347E+00  0.2377E+02
   6.283  0.5357E+00  0.2377E+02
   6.293  0.5367E+00  0.2378E+02
   6.303  0.5377E+00  0.2378E+02
   6.313  0.5388E+00  0.2379E+02
   6.323  0.5399E+00  0.2379E+02
   6.333  0.5411E+00  0.2380E+02
   6.343  0.5423E+00  0.2381E+02
   6.353  0.5435E+00  0.2381E+02
   6.363  0.5447E+00  0.2382E+02
   6.373  0.5460E+00  0.2382E+02
   6.383  0.5473E+00  0.2383E+02
   6.393  0.5487E+00  0.2383E+02
   6.403  0.5501E+00  0.2384E+02
   6.413  0.5515E+00  0.2384E+02
   6.423  0.5530E+00  0.2385E+02
   6.433  0.5544E+00  0.2385E+02
   6.443  0.5560E+00  0.2386E+02
   6.453  0.5575E+00  0.2387E+02
   6.463  0.5591E+00  0.2387E+02
   6.473  0.5607E+00  0.2388E+02
   6.483  0.5623E+00  0.2388E+02
   6.493  0.5640E+00  0.2389E+02
   6.503  0.5657E+00  0.2389E+02
   6.513  0.5675E+00  0.2390E+02
   6.523  0.5692E+00  0.2391E+02
   6.533  0.5711E+00  0.2391E+02
   6.543  0.5729E+00  0.2392E+02
   6.553  0.5747E+00  0.2392E+02
   6.563  0.5766E+00  0.2393E+02
   6.573  0.5786E+00  0.2393E+02
   6.583  0.5805E+00  0.2394E+02
   6.593  0.5825E+00  0.2395E+02
   6.603  0.5845E+00  0.2395E+02
   6.613  0.5865E+00  0.2396E+02
   6.623  0.5886E+00  0.2396E+02
   6.633  0.5907E+00  0.2397E+02
   6.643  0.5928E+00  0.2397E+02
   6.653  0.5950E+00  0.2398E+02
   6.663  0.5971E+00  0.2399E+02
   6.673  0.5993E+00  0.2399E+02
   6.683  0.6015E+00  0.2400E+02
   6.693  0.6038E+00  0.2400E+02
   6.703  0.6061E+00  0.2401E+02
   6.713  0.6083E+00  0.2402E+02
   6.723  0.6107E+00  0.2402E+02
   6.733  0.6130E+00  0.2403E+02
   6.743  0.6154E+00  0.2404E+02
   6.753  0.6177E+00  0.2404E+02
   6.763  0.6201E+00  0.2405E+02
   6.773  0.6226E+00  0.2405E+02
   6.783  0.6250E+00  0.2406E+02
   6.793  0.6274E+00  0.2407E+02
   6.803  0.6299E+00  0.2407E+02
   6.813  0.6324E+00  0.2408E+02
   6.823  0.6349E+00  0.2409E+02
   6.833  0.6375E+00  0.2409E+02
   6.843  0.6400E+00  0.2410E+02
   6.853  0.6426E+00  0.2410E+02
   6.863  0.6451E+00  0.2411E+02
   6.873  0.6477E+00  0.2412E+02
   6.883  0.6503E+00  0.2412E+02
   6.893  0.6529E+00  0.2413E+02
   6.903  0.6556E+00  0.2414E+02
   6.913  0.6582E+00  0.2414E+02
   6.923  0.6608E+00  0.2415E+02
   6.933  0.6635E+00  0.2416E+02
   6.943  0.6662E+00  0.2416E+02
   6.953  0.6688E+00  0.2417E+02
   6.963  0.6715E+00  0.2418E+02
   6.973  0.6742E+00  0.2418E+02
   6.983  0.6769E+00  0.2419E+02
   6.993  0.6796E+00  0.2420E+02
   7.003  0.6823E+00  0.2420E+02
   7.013  0.6851E+00  0.2421E+02
   7.023  0.6878E+00  0.2422E+02
   7.033  0.6905E+00  0.2422E+02
   7.043  0.6932E+00  0.2423E+02
   7.053  0.6960E+00  0.2424E+02
   7.063  0.6987E+00  0.2425E+02
   7.073  0.7014E+00  0.2425E+02
   7.083  0.7042E+00  0.2426E+02
   7.093  0.7069E+00  0.2427E+02
   7.103  0.7097E+00  0.2427E+02
   7.113  0.7124E+00  0.2428E+02
   7.123  0.7151E+00  0.2429E+02
   7.133  0.7179E+00  0.2430E+02
   7.143  0.7206E+00  0.2430E+02
   7.153  0.7233E+00  0.2431E+02
   7.163  0.7261E+00  0.2432E+02
   7.173  0.7288E+00  0.2432E+02
   7.183  0.7315E+00  0.2433E+02
   7.193  0.7342E+00  0.2434E+02
   7.203  0.7369E+00  0.2435E+02
   7.213  0.7396E+00  0.2435E+02
   7.223  0.7423E+00  0.2436E+02
   7.233  0.7450E+00  0.2437E+02
   7.243  0.7477E+00  0.2438E+02
   7.253  0.7504E+00  0.2438E+02
   7.263  0.7530E+00  0.2439E+02
   7.273  0.7557E+00  0.2440E+02
   7.283  0.7583E+00  0.2441E+02
   7.293  0.7610E+00  0.2441E+02
   7.303  0.7636E+00  0.2442E+02
   7.313  0.7662E+00  0.2443E+02
   7.323  0.7688E+00  0.2444E+02
   7.333  0.7714E+00  0.2444E+02
   7.343  0.7740E+00  0.2445E+02
   7.353  0.7766E+00  0.2446E+02
   7.363  0.7792E+00  0.2447E+02
   7.373  0.7817E+00  0.2448E+02
   7.383  0.7843E+00  0.2448E+02
   7.393  0.7868E+00  0.2449E+02
   7.403  0.7893E+00  0.2450E+02
   7.413  0.7918E+00  0.2451E+02
   7.423  0.7943E+00  0.2452E+02
   7.433  0.7968E+00  0.2452E+02
   7.443  0.7993E+00  0.2453E+02
   7.453  0.8017E+00  0.2454E+02
   7.463  0.8042E+00  0.2455E+02
   7.473  0.8066E+00  0.2456E+02
   7.483  0.8090E+00  0.2456E+02
   7.493  0.8114E+00  0.2457E+02
   7.503  0.8138E+00  0.2458E+02
   7.513  0.8162E+00  0.2459E+02
   7.523  0.8185E+00  0.2460E+02
   7.533  0.8209E+00  0.2460E+02
   7.543  0.8232E+00  0.2461E+02
   7.553  0.8255E+00  0.2462E+02
   7.563  0.8278E+00  0.2463E+02
   7.573  0.8301E+00  0.2464E+02
   7.583  0.8324E+00  0.2465E+02
   7.593  0.8347E+00  0.2465E+02
   7.603  0.8369E+00  0.2466E+02
   7.613  0.8391E+00  0.2467E+02
   7.623  0.8414E+00  0.2468E+02
   7.633  0.8436E+00  0.2469E+02
   7.643  0.8458E+00  0.2470E+02
   7.653  0.8479E+00  0.2470E+02
   7.663  0.8501E+00  0.2471E+02
   7.673  0.8523E+00  0.2472E+02
   7.683  0.8544E+00  0.2473E+02
   7.693  0.8565E+00  0.2474E+02
   7.703  0.8586E+00  0.2475E+02
   7.713  0.8608E+00  0.2476E+02
   7.723  0.8628E+00  0.2476E+02
   7.733  0.8649E+00  0.2477E+02
   7.743  0.8670E+00  0.2478E+02
   7.753  0.8690E+00  0.2479E+02
   7.763  0.8711E+00  0.2480E+02
   7.773  0.8731E+00  0.2481E+02
   7.783  0.8751E+00  0.2482E+02
   7.793  0.8772E+00  0.2483E+02
   7.803  0.8792E+00  0.2483E+02
   7.813  0.8812E+00  0.2484E+02
   7.823  0.8831E+00  0.2485E+02
   7.833  0.8851E+00  0.2486E+02
   7.843  0.8871E+00  0.2487E+02
   7.853  0.8890E+00  0.2488E+02
   7.863  0.8910E+00  0.2489E+02
   7.873  0.8929E+00  0.2490E+02
   7.883  0.8948E+00  0.2491E+02
   7.893  0.8968E+00  0.2491E+02
   7.903  0.8987E+00  0.2492E+02
   7.913  0.9006E+00  0.2493E+02
   7.923  0.9025E+00  0.2494E+02
   7.933  0.9044E+00  0.2495E+02
   7.943  0.9063E+00  0.2496E+02
   7.953  0.9081E+00  0.2497E+02
   7.963  0.9100E+00  0.2498E+02
   7.973  0.9119E+00  0.2499E+02
   7.983  0.9137E+00  0.2500E+02
   7.993  0.9156E+00  0.2500E+02
   8.003  0.9174E+00  0.2501E+02
   8.013  0.9193E+00  0.2502E+02
   8.023  0.9211E+00  0.2503E+02
   8.033  0.9230E+00  0.2504E+02
   8.043  0.9248E+00  0.2505E+02
   8.053  0.9267E+00  0.2506E+02
   8.063  0.9285E+00  0.2507E+02
   8.073  0.9303E+00  0.2508E+02
   8.083  0.9321E+00  0.2509E+02
   8.093  0.9340E+00  0.2510E+02
   8.103  0.9358E+00  0.2511E+02
   8.113  0.9376E+00  0.2512E+02
   8.123  0.9394E+00  0.2513E+02
   8.133  0.9413E+00  0.2514E+02
   8.143  0.9431E+00  0.2514E+02
   8.153  0.9449E+00  0.2515E+02
   8.163  0.9467E+00  0.2516E+02
   8.173  0.9485E+00  0.2517E+02
   8.183  0.9503E+00  0.2518E+02
   8.193  0.9522E+00  0.2519E+02
   8.203  0.9540E+00  0.2520E+02
   8.213  0.9558E+00  0.2521E+02
   8.223  0.9576E+00  0.2522E+02
   8.233  0.9594E+00  0.2523E+02
   8.243  0.9613E+00  0.2524E+02
   8.253  0.9631E+00  0.2525E+02
   8.263  0.9649E+00  0.2526E+02
   8.273  0.9667E+00  0.2527E+02
   8.283  0.9686E+00  0.2528E+02
   8.293  0.9704E+00  0.2529E+02
   8.303  0.9722E+00  0.2530E+02
   8.313  0.9740E+00  0.2531E+02
   8.323  0.9759E+00  0.2532E+02
   8.333  0.9777E+00  0.2533E+02
   8.343  0.9795E+00  0.2534E+02
   8.353  0.9814E+00  0.2535E+02
   8.363  0.9832E+00  0.2536E+02
   8.373  0.9851E+00  0.2537E+02
   8.383  0.9869E+00  0.2538E+02
   8.393  0.9888E+00  0.2539E+02
   8.403  0.9906E+00  0.2540E+02
   8.413  0.9925E+00  0.2541E+02
   8.423  0.9943E+00  0.2542E+02
   8.433  0.9962E+00  0.2543E+02
   8.443  0.9980E+00  0.2544E+02
   8.453  0.9999E+00  0.2545E+02
   8.463  0.1002E+01  0.2546E+02
   8.473  0.1004E+01  0.2547E+02
   8.483  0.1005E+01  0.2548E+02
   8.493  0.1007E+01  0.2549E+02
   8.503  0.1009E+01  0.2550E+02
   8.513  0.1011E+01  0.2551E+02
   8.523  0.1013E+01  0.2552E+02
   8.533  0.1015E+01  0.2553E+02
   8.543  0.1017E+01  0.2554E+02
   8.553  0.1018E+01  0.2555E+02
   8.563  0.1020E+01  0.2556E+02
   8.573  0.1022E+01  0.2557E+02
   8.583  0.1024E+01  0.2558E+02
   8.593  0.1026E+01  0.2559E+02
   8.603  0.1028E+01  0.2560E+02
   8.613  0.1030E+01  0.2561E+02
   8.623  0.1031E+01  0.2562E+02
   8.633  0.1033E+01  0.2563E+02
   8.643  0.1035E+01  0.2564E+02
   8.653  0.1037E+01  0.2565E+02
   8.663  0.1039E+01  0.2566E+02
   8.673  0.1041E+01  0.2567E+02
   8.683  0.1043E+01  0.2568E+02
   8.693  0.1044E+01  0.2569E+02
   8.703  0.1046E+01  0.2570E+02
   8.713  0.1048E+01  0.2571E+02
   8.723  0.1050E+01  0.2572E+02
   8.733  0.1052E+01  0.2573E+02
   8.743  0.1053E+01  0.2574E+02
   8.753  0.1055E+01  0.2575E+02
   8.763  0.1057E+01  0.2577E+02
   8.773  0.1059E+01  0.2578E+02
   8.783  0.1061E+01  0.2579E+02
   8.793  0.1062E+01  0.2580E+02
   8.803  0.1064E+01  0.2581E+02
   8.813  0.1066E+01  0.2582E+02
   8.823  0.1067E+01  0.2583E+02
   8.833  0.1069E+01  0.2584E+02
   8.843  0.1071E+01  0.2585E+02
   8.853  0.1073E+01  0.2586E+02
   8.863  0.1074E+01  0.2587E+02
   8.873  0.1076E+01  0.2588E+02
   8.883  0.1078E+01  0.2589E+02
   8.893  0.1079E+01  0.2590E+02
   8.903  0.1081E+01  0.2591E+02
   8.913  0.1083E+01  0.2593E+02
   8.923  0.1084E+01  0.2594E+02
   8.933  0.1086E+01  0.2595E+02
   8.943  0.1087E+01  0.2596E+02
   8.953  0.1089E+01  0.2597E+02
   8.963  0.1090E+01  0.2598E+02
   8.973  0.1092E+01  0.2599E+02
   8.983  0.1093E+01  0.2600E+02
   8.993  0.1095E+01  0.2601E+02
   9.003  0.1096E+01  0.2602E+02
   9.013  0.1098E+01  0.2603E+02
   9.023  0.1099E+01  0.2605E+02
   9.033  0.1101E+01  0.2606E+02
   9.043  0.1102E+01  0.2607E+02
   9.053  0.1103E+01  0.2608E+02
   9.063  0.1105E+01  0.2609E+02
   9.073  0.1106E+01  0.2610E+02
   9.083  0.1107E+01  0.2611E+02
   9.093  0.1109E+01  0.2612E+02
   9.103  0.1110E+01  0.2613E+02
   9.113  0.1111E+01  0.2615E+02
   9.123  0.1112E+01  0.2616E+02
   9.133  0.1113E+01  0.2617E+02
   9.143  0.1115E+01  0.2618E+02
   9.153  0.1116E+01  0.2619E+02
   9.163  0.1117E+01  0.2620E+02
   9.173  0.1118E+01  0.2621E+02
   9.183  0.1119E+01  0.2622E+02
   9.193  0.1120E+01  0.2623E+02
   9.203  0.1121E+01  0.2625E+02
   9.213  0.1122E+01  0.2626E+02
   9.223  0.1123E+01  0.2627E+02
   9.233  0.1124E+01  0.2628E+02
   9.243  0.1125E+01  0.2629E+02
   9.253  0.1126E+01  0.2630E+02
   9.263  0.1126E+01  0.2631E+02
   9.273  0.1127E+01  0.2632E+02
   9.283  0.1128E+01  0.2634E+02
   9.293  0.1129E+01  0.2635E+02
   9.303  0.1129E+01  0.2636E+02
   9.313  0.1130E+01  0.2637E+02
   9.323  0.1131E+01  0.2638E+02
   9.333  0.1131E+01  0.2639E+02
   9.343  0.1132E+01  0.2640E+02
   9.353  0.1132E+01  0.2641E+02
   9.363  0.1133E+01  0.2643E+02
   9.373  0.1134E+01  0.2644E+02
   9.383  0.1134E+01  0.2645E+02
   9.393  0.1134E+01  0.2646E+02
   9.403  0.1135E+01  0.2647E+02
   9.413  0.1135E+01  0.2648E+02
   9.423  0.1135E+01  0.2649E+02
   9.433  0.1136E+01  0.2651E+02
   9.443  0.1136E+01  0.2652E+02
   9.453  0.1136E+01  0.2653E+02
   9.463  0.1137E+01  0.2654E+02
   9.473  0.1137E+01  0.2655E+02
   9.483  0.1137E+01  0.2656E+02
   9.493  0.1137E+01  0.2657E+02
   9.503  0.1137E+01  0.2659E+02
   9.513  0.1137E+01  0.2660E+02
   9.523  0.1137E+01  0.2661E+02
   9.533  0.1137E+01  0.2662E+02
   9.543  0.1137E+01  0.2663E+02
   9.553  0.1137E+01  0.2664E+02
   9.563  0.1137E+01  0.2665E+02
   9.573  0.1137E+01  0.2666E+02
   9.583  0.1136E+01  0.2668E+02
   9.593  0.1136E+01  0.2669E+02
   9.603  0.1136E+01  0.2670E+02
   9.613  0.1136E+01  0.2671E+02
   9.623  0.1135E+01  0.2672E+02
   9.633  0.1135E+01  0.2673E+02
   9.643  0.1135E+01  0.2674E+02
   9.653  0.1134E+01  0.2676E+02
   9.663  0.1134E+01  0.2677E+02
   9.673  0.1133E+01  0.2678E+02
   9.683  0.1133E+01  0.2679E+02
   9.693  0.1132E+01  0.2680E+02
   9.703  0.1132E+01  0.2681E+02
   9.713  0.1131E+01  0.2682E+02
   9.723  0.1131E+01  0.2683E+02
   9.733  0.1130E+01  0.2685E+02
   9.743  0.1130E+01  0.2686E+02
   9.753  0.1129E+01  0.2687E+02
   9.763  0.1128E+01  0.2688E+02
   9.773  0.1127E+01  0.2689E+02
   9.783  0.1127E+01  0.2690E+02
   9.793  0.1126E+01  0.2691E+02
   9.803  0.1125E+01  0.2693E+02
   9.813  0.1124E+01  0.2694E+02
   9.823  0.1123E+01  0.2695E+02
   9.833  0.1122E+01  0.2696E+02
   9.843  0.1122E+01  0.2697E+02
   9.853  0.1121E+01  0.2698E+02
   9.863  0.1120E+01  0.2699E+02
   9.873  0.1119E+01  0.2700E+02
   9.883  0.1118E+01  0.2701E+02
   9.893  0.1117E+01  0.2703E+02
   9.903  0.1116E+01  0.2704E+02
   9.913  0.1115E+01  0.2705E+02
   9.923  0.1114E+01  0.2706E+02
   9.933  0.1112E+01  0.2707E+02
   9.943  0.1111E+01  0.2708E+02
   9.953  0.1110E+01  0.2709E+02
   9.963  0.1109E+01  0.2710E+02
   9.973  0.1108E+01  0.2711E+02
   9.983  0.1107E+01  0.2713E+02
   9.993  0.1106E+01  0.2714E+02
  10.003  0.1104E+01  0.2715E+02
  10.013  0.1103E+01  0.2716E+02
  10.023  0.1102E+01  0.2717E+02
  10.033  0.1101E+01  0.2718E+02
  10.043  0.1099E+01  0.2719E+02
  10.053  0.1098E+01  0.2720E+02
  10.063  0.1097E+01  0.2721E+02
  10.073  0.1095E+01  0.2723E+02
  10.083  0.1094E+01  0.2724E+02
  10.093  0.1093E+01  0.2725E+02
  10.103  0.1091E+01  0.2726E+02
  10.113  0.1090E+01  0.2727E+02
  10.123  0.1089E+01  0.2728E+02
  10.133  0.1087E+01  0.2729E+02
  10.143  0.1086E+01  0.2730E+02
  10.153  0.1085E+01  0.2731E+02
  10.163  0.1083E+01  0.2732E+02
  10.173  0.1082E+01  0.2733E+02
  10.183  0.1081E+01  0.2734E+02
  10.193  0.1079E+01  0.2736E+02
  10.203  0.1078E+01  0.2737E+02
  10.213  0.1076E+01  0.2738E+02
  10.223  0.1075E+01  0.2739E+02
  10.233  0.1073E+01  0.2740E+02
  10.243  0.1072E+01  0.2741E+02
  10.253  0.1071E+01  0.2742E+02
  10.263  0.1069E+01  0.2743E+02
  10.273  0.1068E+01  0.2744E+02
  10.283  0.1066E+01  0.2745E+02
  10.293  0.1065E+01  0.2746E+02
  10.303  0.1063E+01  0.2747E+02
  10.313  0.1062E+01  0.2748E+02
  10.323  0.1061E+01  0.2749E+02
  10.333  0.1059E+01  0.2751E+02
  10.343  0.1058E+01  0.2752E+02
  10.353  0.1056E+01  0.2753E+02
  10.363  0.1055E+01  0.2754E+02
  10.373  0.1053E+01  0.2755E+02
  10.383  0.1052E+01  0.2756E+02
  10.393  0.1051E+01  0.2757E+02
  10.403  0.1049E+01  0.2758E+02
  10.413  0.1048E+01  0.2759E+02
  10.423  0.1046E+01  0.2760E+02
  10.433  0.1045E+01  0.2761E+02
  10.443  0.1044E+01  0.2762E+02
  10.453  0.1042E+01  0.2763E+02
  10.463  0.1041E+01  0.2764E+02
  10.473  0.1040E+01  0.2765E+02
  10.483  0.1038E+01  0.2766E+02
  10.493  0.1037E+01  0.2767E+02
  10.503  0.1035E+01  0.2768E+02
  10.513  0.1034E+01  0.2769E+02
  10.523  0.1033E+01  0.2770E+02
  10.533  0.1032E+01  0.2771E+02
  10.543  0.1030E+01  0.2772E+02
  10.553  0.1029E+01  0.2773E+02
  10.563  0.1028E+01  0.2774E+02
  10.573  0.1026E+01  0.2776E+02
  10.583  0.1025E+01  0.2777E+02
  10.593  0.1024E+01  0.2778E+02
  10.603  0.1023E+01  0.2779E+02
  10.613  0.1021E+01  0.2780E+02
  10.623  0.1020E+01  0.2781E+02
  10.633  0.1019E+01  0.2782E+02
  10.643  0.1018E+01  0.2783E+02
  10.653  0.1017E+01  0.2784E+02
  10.663  0.1015E+01  0.2785E+02
  10.673  0.1014E+01  0.2786E+02
  10.683  0.1013E+01  0.2787E+02
  10.693  0.1012E+01  0.2788E+02
  10.703  0.1011E+01  0.2789E+02
  10.713  0.1010E+01  0.2790E+02
  10.723  0.1009E+01  0.2791E+02
  10.733  0.1008E+01  0.2792E+02
  10.743  0.1007E+01  0.2793E+02
  10.753  0.1005E+01  0.2794E+02
  10.763  0.1004E+01  0.2795E+02
  10.773  0.1003E+01  0.2796E+02
  10.783  0.1002E+01  0.2797E+02
  10.793  0.1001E+01  0.2798E+02
  10.803  0.1000E+01  0.2799E+02
  10.813  0.9994E+00  0.2800E+02
  10.823  0.9985E+00  0.2801E+02
  10.833  0.9976E+00  0.2802E+02
  10.843  0.9966E+00  0.2803E+02
  10.853  0.9957E+00  0.2804E+02
  10.863  0.9948E+00  0.2805E+02
  10.873  0.9940E+00  0.2806E+02
  10.883  0.9931E+00  0.2807E+02
  10.893  0.9923E+00  0.2808E+02
  10.903  0.9914E+00  0.2809E+02
  10.913  0.9906E+00  0.2810E+02
  10.923  0.9898E+00  0.2811E+02
  10.933  0.9890E+00  0.2812E+02
  10.943  0.9883E+00  0.2813E+02
  10.953  0.9875E+00  0.2814E+02
  10.963  0.9868E+00  0.2815E+02
  10.973  0.9860E+00  0.2816E+02
  10.983  0.9853E+00  0.2817E+02
  10.993  0.9846E+00  0.2818E+02
  11.003  0.9839E+00  0.2819E+02
  11.013  0.9833E+00  0.2820E+02
  11.023  0.9826E+00  0.2821E+02
  11.033  0.9820E+00  0.2822E+02
  11.043  0.9814E+00  0.2823E+02
  11.053  0.9808E+00  0.2824E+02
  11.063  0.9802E+00  0.2825E+02
  11.073  0.9796E+00  0.2825E+02
  11.083  0.9790E+00  0.2826E+02
  11.093  0.9785E+00  0.2827E+02
  11.103  0.9780E+00  0.2828E+02
  11.113  0.9774E+00  0.2829E+02
  11.123  0.9769E+00  0.2830E+02
  11.133  0.9764E+00  0.2831E+02
  11.143  0.9760E+00  0.2832E+02
  11.153  0.9755E+00  0.2833E+02
  11.163  0.9751E+00  0.2834E+02
  11.173  0.9746E+00  0.2835E+02
  11.183  0.9742E+00  0.2836E+02
  11.193  0.9738E+00  0.2837E+02
  11.203  0.9734E+00  0.2838E+02
  11.213  0.9730E+00  0.2839E+02
  11.223  0.9727E+00  0.2840E+02
  11.233  0.9723E+00  0.2841E+02
  11.243  0.9720E+00  0.2842E+02
  11.253  0.9716E+00  0.2843E+02
  11.263  0.9713E+00  0.2844E+02
  11.273  0.9710E+00  0.2845E+02
  11.283  0.9707E+00  0.2846E+02
  11.293  0.9704E+00  0.2847E+02
  11.303  0.9702E+00  0.2848E+02
  11.313  0.9699E+00  0.2849E+02
  11.323  0.9697E+00  0.2850E+02
  11.333  0.9694E+00  0.2851E+02
  11.343  0.9692E+00  0.2852E+02
  11.353  0.9690E+00  0.2853E+02
  11.363  0.9688E+00  0.2854E+02
  11.373  0.9686E+00  0.2855E+02
  11.383  0.9685E+00  0.2856E+02
  11.393  0.9683E+00  0.2857E+02
  11.403  0.9681E+00  0.2858E+02
  11.413  0.9680E+00  0.2859E+02
  11.423  0.9679E+00  0.2860E+02
  11.433  0.9677E+00  0.2860E+02
  11.443  0.9676E+00  0.2861E+02
  11.453  0.9675E+00  0.2862E+02
  11.463  0.9674E+00  0.2863E+02
  11.473  0.9673E+00  0.2864E+02
  11.483  0.9673E+00  0.2865E+02
  11.493  0.9672E+00  0.2866E+02
  11.503  0.9671E+00  0.2867E+02
  11.513  0.9671E+00  0.2868E+02
  11.523  0.9671E+00  0.2869E+02
  11.533  0.9670E+00  0.2870E+02
  11.543  0.9670E+00  0.2871E+02
  11.553  0.9670E+00  0.2872E+02
  11.563  0.9670E+00  0.2873E+02
  11.573  0.9670E+00  0.2874E+02
  11.583  0.9670E+00  0.2875E+02
  11.593  0.9670E+00  0.2876E+02
  11.603  0.9671E+00  0.2877E+02
  11.613  0.9671E+00  0.2878E+02
  11.623  0.9671E+00  0.2879E+02
  11.633  0.9672E+00  0.2880E+02
  11.643  0.9673E+00  0.2881E+02
  11.653  0.9673E+00  0.2882E+02
  11.663  0.9674E+00  0.2883E+02
  11.673  0.9675E+00  0.2884E+02
  11.683  0.9676E+00  0.2885E+02
  11.693  0.9677E+00  0.2886E+02
  11.703  0.9678E+00  0.2887E+02
  11.713  0.9679E+00  0.2888E+02
  11.723  0.9680E+00  0.2889E+02
  11.733  0.9681E+00  0.2890E+02
  11.743  0.9683E+00  0.2890E+02
  11.753  0.9684E+00  0.2891E+02
  11.763  0.9686E+00  0.2892E+02
  11.773  0.9687E+00  0.2893E+02
  11.783  0.9689E+00  0.2894E+02
  11.793  0.9690E+00  0.2895E+02
  11.803  0.9692E+00  0.2896E+02
  11.813  0.9694E+00  0.2897E+02
  11.823  0.9696E+00  0.2898E+02
  11.833  0.9698E+00  0.2899E+02
  11.843  0.9700E+00  0.2900E+02
  11.853  0.9702E+00  0.2901E+02
  11.863  0.9704E+00  0.2902E+02
  11.873  0.9706E+00  0.2903E+02
  11.883  0.9708E+00  0.2904E+02
  11.893  0.9711E+00  0.2905E+02
  11.903  0.9713E+00  0.2906E+02
  11.913  0.9715E+00  0.2907E+02
  11.923  0.9718E+00  0.2908E+02
  11.933  0.9720E+00  0.2909E+02
  11.943  0.9723E+00  0.2910E+02
  11.953  0.9726E+00  0.2911E+02
  11.963  0.9729E+00  0.2912E+02
  11.973  0.9731E+00  0.2913E+02
  11.983  0.9734E+00  0.2914E+02
  11.993  0.9737E+00  0.2915E+02
  12.003  0.9740E+00  0.2916E+02
  12.013  0.9744E+00  0.2917E+02
  12.023  0.9747E+00  0.2918E+02
  12.033  0.9750E+00  0.2919E+02
  12.043  0.9753E+00  0.2920E+02
  12.053  0.9757E+00  0.2921E+02
  12.063  0.9760E+00  0.2922E+02
  12.073  0.9764E+00  0.2923E+02
  12.083  0.9768E+00  0.2924E+02
  12.093  0.9771E+00  0.2924E+02
  12.103  0.9775E+00  0.2925E+02
  12.113  0.9779E+00  0.2926E+02
  12.123  0.9783E+00  0.2927E+02
  12.133  0.9787E+00  0.2928E+02
  12.143  0.9791E+00  0.2929E+02
  12.153  0.9795E+00  0.2930E+02
  12.163  0.9800E+00  0.2931E+02
  12.173  0.9804E+00  0.2932E+02
  12.183  0.9809E+00  0.2933E+02
  12.193  0.9813E+00  0.2934E+02
  12.203  0.9818E+00  0.2935E+02
  12.213  0.9823E+00  0.2936E+02
  12.223  0.9827E+00  0.2937E+02
  12.233  0.9832E+00  0.2938E+02
  12.243  0.9837E+00  0.2939E+02
  12.253  0.9842E+00  0.2940E+02
  12.263  0.9848E+00  0.2941E+02
  12.273  0.9853E+00  0.2942E+02
  12.283  0.9858E+00  0.2943E+02
  12.293  0.9864E+00  0.2944E+02
  12.303  0.9870E+00  0.2945E+02
  12.313  0.9875E+00  0.2946E+02
  12.323  0.9881E+00  0.2947E+02
  12.333  0.9887E+00  0.2948E+02
  12.343  0.9893E+00  0.2949E+02
  12.353  0.9899E+00  0.2950E+02
  12.363  0.9906E+00  0.2951E+02
  12.373  0.9912E+00  0.2952E+02
  12.383  0.9919E+00  0.2953E+02
  12.393  0.9925E+00  0.2954E+02
  12.403  0.9932E+00  0.2955E+02
  12.413  0.9939E+00  0.2956E+02
  12.423  0.9946E+00  0.2957E+02
  12.433  0.9953E+00  0.2958E+02
  12.443  0.9960E+00  0.2959E+02
  12.453  0.9967E+00  0.2960E+02
  12.463  0.9975E+00  0.2961E+02
  12.473  0.9983E+00  0.2962E+02
  12.483  0.9990E+00  0.2963E+02
  12.493  0.9998E+00  0.2964E+02
  12.503  0.1001E+01  0.2965E+02
  12.513  0.1001E+01  0.2966E+02
  12.523  0.1002E+01  0.2967E+02
  12.533  0.1003E+01  0.2968E+02
  12.543  0.1004E+01  0.2969E+02
  12.553  0.1005E+01  0.2970E+02
  12.563  0.1006E+01  0.2971E+02
  12.573  0.1007E+01  0.2972E+02
  12.583  0.1007E+01  0.2973E+02
  12.593  0.1008E+01  0.2974E+02
  12.603  0.1009E+01  0.2975E+02
  12.613  0.1010E+01  0.2976E+02
  12.623  0.1011E+01  0.2977E+02
  12.633  0.1012E+01  0.2978E+02
  12.643  0.1013E+01  0.2979E+02
  12.653  0.1014E+01  0.2980E+02
  12.663  0.1015E+01  0.2981E+02
  12.673  0.1016E+01  0.2982E+02
  12.683  0.1017E+01  0.2983E+02
  12.693  0.1018E+01  0.2984E+02
  12.703  0.1019E+01  0.2985E+02
  12.713  0.1020E+01  0.2986E+02
  12.723  0.1021E+01  0.2987E+02
  12.733  0.1023E+01  0.2988E+02
  12.743  0.1024E+01  0.2989E+02
  12.753  0.1025E+01  0.2990E+02
  12.763  0.1026E+01  0.2991E+02
  12.773  0.1027E+01  0.2992E+02
  12.783  0.1028E+01  0.2993E+02
  12.793  0.1029E+01  0.2994E+02
  12.803  0.1031E+01  0.2995E+02
  12.813  0.1032E+01  0.2996E+02
  12.823  0.1033E+01  0.2998E+02
  12.833  0.1034E+01  0.2999E+02
  12.843  0.1036E+01  0.3000E+02
  12.853  0.1037E+01  0.3001E+02
  12.863  0.1038E+01  0.3002E+02
  12.873  0.1040E+01  0.3003E+02
  12.883  0.1041E+01  0.3004E+02
  12.893  0.1042E+01  0.3005E+02
  12.903  0.1043E+01  0.3006E+02
  12.913  0.1045E+01  0.3007E+02
  12.923  0.1046E+01  0.3008E+02
  12.933  0.1048E+01  0.3009E+02
  12.943  0.1049E+01  0.3010E+02
  12.953  0.1050E+01  0.3011E+02
  12.963  0.1052E+01  0.3012E+02
  12.973  0.1053E+01  0.3013E+02
  12.983  0.1055E+01  0.3014E+02
  12.993  0.1056E+01  0.3015E+02
  13.003  0.1058E+01  0.3016E+02
  13.013  0.1059E+01  0.3017E+02
  13.023  0.1061E+01  0.3018E+02
  13.033  0.1062E+01  0.3020E+02
  13.043  0.1064E+01  0.3021E+02
  13.053  0.1065E+01  0.3022E+02
  13.063  0.1067E+01  0.3023E+02
  13.073  0.1068E+01  0.3024E+02
  13.083  0.1070E+01  0.3025E+02
  13.093  0.1071E+01  0.3026E+02
  13.103  0.1073E+01  0.3027E+02
  13.113  0.1075E+01  0.3028E+02
  13.123  0.1076E+01  0.3029E+02
  13.133  0.1078E+01  0.3030E+02
  13.143  0.1080E+01  0.3031E+02
  13.153  0.1081E+01  0.3032E+02
  13.163  0.1083E+01  0.3033E+02
  13.173  0.1085E+01  0.3035E+02
  13.183  0.1086E+01  0.3036E+02
  13.193  0.1088E+01  0.3037E+02
  13.203  0.1090E+01  0.3038E+02
  13.213  0.1091E+01  0.3039E+02
  13.223  0.1093E+01  0.3040E+02
  13.233  0.1095E+01  0.3041E+02
  13.243  0.1097E+01  0.3042E+02
  13.253  0.1098E+01  0.3043E+02
  13.263  0.1100E+01  0.3044E+02
  13.273  0.1102E+01  0.3045E+02
  13.283  0.1104E+01  0.3047E+02
  13.293  0.1106E+01  0.3048E+02
  13.303  0.1107E+01  0.3049E+02
  13.313  0.1109E+01  0.3050E+02
  13.323  0.1111E+01  0.3051E+02
  13.333  0.1113E+01  0.3052E+02
  13.343  0.1115E+01  0.3053E+02
  13.353  0.1117E+01  0.3054E+02
  13.363  0.1119E+01  0.3055E+02
  13.373  0.1121E+01  0.3057E+02
  13.383  0.1122E+01  0.3058E+02
  13.393  0.1124E+01  0.3059E+02
  13.403  0.1126E+01  0.3060E+02
  13.413  0.1128E+01  0.3061E+02
  13.423  0.1130E+01  0.3062E+02
  13.433  0.1132E+01  0.3063E+02
  13.443  0.1134E+01  0.3065E+02
  13.453  0.1136E+01  0.3066E+02
  13.463  0.1138E+01  0.3067E+02
  13.473  0.1140E+01  0.3068E+02
  13.483  0.1142E+01  0.3069E+02
  13.493  0.1144E+01  0.3070E+02
  13.503  0.1146E+01  0.3071E+02
  13.513  0.1148E+01  0.3073E+02
  13.523  0.1150E+01  0.3074E+02
  13.533  0.1152E+01  0.3075E+02
  13.543  0.1154E+01  0.3076E+02
  13.553  0.1156E+01  0.3077E+02
  13.563  0.1158E+01  0.3078E+02
  13.573  0.1160E+01  0.3079E+02
  13.583  0.1162E+01  0.3081E+02
  13.593  0.1165E+01  0.3082E+02
  13.603  0.1167E+01  0.3083E+02
  13.613  0.1169E+01  0.3084E+02
  13.623  0.1171E+01  0.3085E+02
  13.633  0.1173E+01  0.3086E+02
  13.643  0.1175E+01  0.3088E+02
  13.653  0.1177E+01  0.3089E+02
  13.663  0.1179E+01  0.3090E+02
  13.673  0.1181E+01  0.3091E+02
  13.683  0.1184E+01  0.3092E+02
  13.693  0.1186E+01  0.3094E+02
  13.703  0.1188E+01  0.3095E+02
  13.713  0.1190E+01  0.3096E+02
  13.723  0.1192E+01  0.3097E+02
  13.733  0.1194E+01  0.3098E+02
  13.743  0.1197E+01  0.3099E+02
  13.753  0.1199E+01  0.3101E+02
  13.763  0.1201E+01  0.3102E+02
  13.773  0.1203E+01  0.3103E+02
  13.783  0.1205E+01  0.3104E+02
  13.793  0.1208E+01  0.3106E+02
  13.803  0.1210E+01  0.3107E+02
  13.813  0.1212E+01  0.3108E+02
  13.823  0.1214E+01  0.3109E+02
  13.833  0.1216E+01  0.3110E+02
  13.843  0.1219E+01  0.3112E+02
  13.853  0.1221E+01  0.3113E+02
  13.863  0.1223E+01  0.3114E+02
  13.873  0.1225E+01  0.3115E+02
  13.883  0.1228E+01  0.3116E+02
  13.893  0.1230E+01  0.3118E+02
  13.903  0.1232E+01  0.3119E+02
  13.913  0.1234E+01  0.3120E+02
  13.923  0.1237E+01  0.3121E+02
  13.933  0.1239E+01  0.3123E+02
  13.943  0.1241E+01  0.3124E+02
  13.953  0.1243E+01  0.3125E+02
  13.963  0.1246E+01  0.3126E+02
  13.973  0.1248E+01  0.3128E+02
  13.983  0.1250E+01  0.3129E+02
  13.993  0.1252E+01  0.3130E+02
  14.003  0.1255E+01  0.3131E+02
  14.013  0.1257E+01  0.3133E+02
  14.023  0.1259E+01  0.3134E+02
  14.033  0.1261E+01  0.3135E+02
  14.043  0.1264E+01  0.3136E+02
  14.053  0.1266E+01  0.3138E+02
  14.063  0.1268E+01  0.3139E+02
  14.073  0.1270E+01  0.3140E+02
  14.083  0.1273E+01  0.3141E+02
  14.093  0.1275E+01  0.3143E+02
  14.103  0.1277E+01  0.3144E+02
  14.113  0.1279E+01  0.3145E+02
  14.123  0.1282E+01  0.3147E+02
  14.133  0.1284E+01  0.3148E+02
  14.143  0.1286E+01  0.3149E+02
  14.153  0.1288E+01  0.3150E+02
  14.163  0.1290E+01  0.3152E+02
  14.173  0.1293E+01  0.3153E+02
  14.183  0.1295E+01  0.3154E+02
  14.193  0.1297E+01  0.3156E+02
  14.203  0.1299E+01  0.3157E+02
  14.213  0.1301E+01  0.3158E+02
  14.223  0.1304E+01  0.3160E+02
  14.233  0.1306E+01  0.3161E+02
  14.243  0.1308E+01  0.3162E+02
  14.253  0.1310E+01  0.3163E+02
  14.263  0.1312E+01  0.3165E+02
  14.273  0.1314E+01  0.3166E+02
  14.283  0.1316E+01  0.3167E+02
  14.293  0.1319E+01  0.3169E+02
  14.303  0.1321E+01  0.3170E+02
  14.313  0.1323E+01  0.3171E+02
  14.323  0.1325E+01  0.3173E+02
  14.333  0.1327E+01  0.3174E+02
  14.343  0.1329E+01  0.3175E+02
  14.353  0.1331E+01  0.3177E+02
  14.363  0.1333E+01  0.3178E+02
  14.373  0.1335E+01  0.3179E+02
  14.383  0.1337E+01  0.3181E+02
  14.393  0.1339E+01  0.3182E+02
  14.403  0.1341E+01  0.3183E+02
  14.413  0.1343E+01  0.3185E+02
  14.423  0.1345E+01  0.3186E+02
  14.433  0.1347E+01  0.3187E+02
  14.443  0.1348E+01  0.3189E+02
  14.453  0.1350E+01  0.3190E+02
  14.463  0.1352E+01  0.3191E+02
  14.473  0.1354E+01  0.3193E+02
  14.483  0.1356E+01  0.3194E+02
  14.493  0.1358E+01  0.3196E+02
  14.503  0.1359E+01  0.3197E+02
  14.513  0.1361E+01  0.3198E+02
  14.523  0.1363E+01  0.3200E+02
  14.533  0.1365E+01  0.3201E+02
  14.543  0.1366E+01  0.3202E+02
  14.553  0.1368E+01  0.3204E+02
  14.563  0.1370E+01  0.3205E+02
  14.573  0.1371E+01  0.3206E+02
  14.583  0.1373E+01  0.3208E+02
  14.593  0.1374E+01  0.3209E+02
  14.603  0.1376E+01  0.3211E+02
  14.613  0.1377E+01  0.3212E+02
  14.623  0.1379E+01  0.3213E+02
  14.633  0.1380E+01  0.3215E+02
  14.643  0.1382E+01  0.3216E+02
  14.653  0.1383E+01  0.3217E+02
  14.663  0.1385E+01  0.3219E+02
  14.673  0.1386E+01  0.3220E+02
  14.683  0.1387E+01  0.3222E+02
  14.693  0.1389E+01  0.3223E+02
  14.703  0.1390E+01  0.3224E+02
  14.713  0.1391E+01  0.3226E+02
  14.723  0.1392E+01  0.3227E+02
  14.733  0.1394E+01  0.3229E+02
  14.743  0.1395E+01  0.3230E+02
  14.753  0.1396E+01  0.3231E+02
  14.763  0.1397E+01  0.3233E+02
  14.773  0.1398E+01  0.3234E+02
  14.783  0.1399E+01  0.3236E+02
  14.793  0.1400E+01  0.3237E+02
  14.803  0.1401E+01  0.3238E+02
  14.813  0.1402E+01  0.3240E+02
  14.823  0.1403E+01  0.3241E+02
  14.833  0.1404E+01  0.3243E+02
  14.843  0.1405E+01  0.3244E+02
  14.853  0.1405E+01  0.3245E+02
  14.863  0.1406E+01  0.3247E+02
  14.873  0.1407E+01  0.3248E+02
  14.883  0.1408E+01  0.3250E+02
  14.893  0.1408E+01  0.3251E+02
  14.903  0.1409E+01  0.3252E+02
  14.913  0.1410E+01  0.3254E+02
  14.923  0.1410E+01  0.3255E+02
  14.933  0.1411E+01  0.3257E+02
  14.943  0.1411E+01  0.3258E+02
  14.953  0.1412E+01  0.3259E+02
  14.963  0.1412E+01  0.3261E+02
  14.973  0.1413E+01  0.3262E+02
  14.983  0.1413E+01  0.3264E+02
  14.993  0.1413E+01  0.3265E+02
  15.003  0.1414E+01  0.3267E+02
  15.013  0.1414E+01  0.3268E+02
  15.023  0.1414E+01  0.3269E+02
  15.033  0.1415E+01  0.3271E+02
  15.043  0.1415E+01  0.3272E+02
  15.053  0.1415E+01  0.3274E+02
  15.063  0.1415E+01  0.3275E+02
  15.073  0.1415E+01  0.3276E+02
  15.083  0.1415E+01  0.3278E+02
  15.093  0.1415E+01  0.3279E+02
  15.103  0.1415E+01  0.3281E+02
  15.113  0.1415E+01  0.3282E+02
  15.123  0.1415E+01  0.3284E+02
  15.133  0.1415E+01  0.3285E+02
  15.143  0.1415E+01  0.3286E+02
  15.153  0.1415E+01  0.3288E+02
  15.163  0.1414E+01  0.3289E+02
  15.173  0.1414E+01  0.3291E+02
  15.183  0.1414E+01  0.3292E+02
  15.193  0.1414E+01  0.3293E+02
  15.203  0.1413E+01  0.3295E+02
  15.213  0.1413E+01  0.3296E+02
  15.223  0.1413E+01  0.3298E+02
  15.233  0.1412E+01  0.3299E+02
  15.243  0.1412E+01  0.3300E+02
  15.253  0.1411E+01  0.3302E+02
  15.263  0.1411E+01  0.3303E+02
  15.273  0.1410E+01  0.3305E+02
  15.283  0.1410E+01  0.3306E+02
  15.293  0.1409E+01  0.3308E+02
  15.303  0.1409E+01  0.3309E+02
  15.313  0.1408E+01  0.3310E+02
  15.323  0.1407E+01  0.3312E+02
  15.333  0.1407E+01  0.3313E+02
  15.343  0.1406E+01  0.3315E+02
  15.353  0.1405E+01  0.3316E+02
  15.363  0.1404E+01  0.3317E+02
  15.373  0.1404E+01  0.3319E+02
  15.383  0.1403E+01  0.3320E+02
  15.393  0.1402E+01  0.3322E+02
  15.403  0.1401E+01  0.3323E+02
  15.413  0.1400E+01  0.3324E+02
  15.423  0.1400E+01  0.3326E+02
  15.433  0.1399E+01  0.3327E+02
  15.443  0.1398E+01  0.3329E+02
  15.453  0.1397E+01  0.3330E+02
  15.463  0.1396E+01  0.3331E+02
  15.473  0.1395E+01  0.3333E+02
  15.483  0.1394E+01  0.3334E+02
  15.493  0.1393E+01  0.3336E+02
  15.503  0.1392E+01  0.3337E+02
  15.513  0.1391E+01  0.3338E+02
  15.523  0.1390E+01  0.3340E+02
  15.533  0.1389E+01  0.3341E+02
  15.543  0.1388E+01  0.3343E+02
  15.553  0.1387E+01  0.3344E+02
  15.563  0.1386E+01  0.3345E+02
  15.573  0.1385E+01  0.3347E+02
  15.583  0.1383E+01  0.3348E+02
  15.593  0.1382E+01  0.3349E+02
  15.603  0.1381E+01  0.3351E+02
  15.613  0.1380E+01  0.3352E+02
  15.623  0.1379E+01  0.3354E+02
  15.633  0.1378E+01  0.3355E+02
  15.643  0.1377E+01  0.3356E+02
  15.653  0.1375E+01  0.3358E+02
  15.663  0.1374E+01  0.3359E+02
  15.673  0.1373E+01  0.3360E+02
  15.683  0.1372E+01  0.3362E+02
  15.693  0.1371E+01  0.3363E+02
  15.703  0.1369E+01  0.3365E+02
  15.713  0.1368E+01  0.3366E+02
  15.723  0.1367E+01  0.3367E+02
  15.733  0.1366E+01  0.3369E+02
  15.743  0.1365E+01  0.3370E+02
  15.753  0.1363E+01  0.3371E+02
  15.763  0.1362E+01  0.3373E+02
  15.773  0.1361E+01  0.3374E+02
  15.783  0.1360E+01  0.3375E+02
  15.793  0.1359E+01  0.3377E+02
  15.803  0.1357E+01  0.3378E+02
  15.813  0.1356E+01  0.3380E+02
  15.823  0.1355E+01  0.3381E+02
  15.833  0.1354E+01  0.3382E+02
  15.843  0.1353E+01  0.3384E+02
  15.853  0.1351E+01  0.3385E+02
  15.863  0.1350E+01  0.3386E+02
  15.873  0.1349E+01  0.3388E+02
  15.883  0.1348E+01  0.3389E+02
  15.893  0.1347E+01  0.3390E+02
  15.903  0.1346E+01  0.3392E+02
  15.913  0.1344E+01  0.3393E+02
  15.923  0.1343E+01  0.3394E+02
  15.933  0.1342E+01  0.3396E+02
  15.943  0.1341E+01  0.3397E+02
  15.953  0.1340E+01  0.3398E+02
  15.963  0.1339E+01  0.3400E+02
  15.973  0.1338E+01  0.3401E+02
  15.983  0.1336E+01  0.3402E+02
  15.993  0.1335E+01  0.3404E+02
  16.003  0.1334E+01  0.3405E+02
  16.013  0.1333E+01  0.3406E+02
  16.023  0.1332E+01  0.3408E+02
  16.033  0.1331E+01  0.3409E+02
  16.043  0.1330E+01  0.3410E+02
  16.053  0.1329E+01  0.3412E+02
  16.063  0.1328E+01  0.3413E+02
  16.073  0.1327E+01  0.3414E+02
  16.083  0.1326E+01  0.3416E+02
  16.093  0.1325E+01  0.3417E+02
  16.103  0.1324E+01  0.3418E+02
  16.113  0.1323E+01  0.3420E+02
  16.123  0.1322E+01  0.3421E+02
  16.133  0.1321E+01  0.3422E+02
  16.143  0.1320E+01  0.3424E+02
  16.153  0.1319E+01  0.3425E+02
  16.163  0.1318E+01  0.3426E+02
  16.173  0.1317E+01  0.3428E+02
  16.183  0.1316E+01  0.3429E+02
  16.193  0.1315E+01  0.3430E+02
  16.203  0.1315E+01  0.3432E+02
  16.213  0.1314E+01  0.3433E+02
  16.223  0.1313E+01  0.3434E+02
  16.233  0.1312E+01  0.3436E+02
  16.243  0.1311E+01  0.3437E+02
  16.253  0.1310E+01  0.3438E+02
  16.263  0.1310E+01  0.3439E+02
  16.273  0.1309E+01  0.3441E+02
  16.283  0.1308E+01  0.3442E+02
  16.293  0.1307E+01  0.3443E+02
  16.303  0.1306E+01  0.3445E+02
  16.313  0.1306E+01  0.3446E+02
  16.323  0.1305E+01  0.3447E+02
  16.333  0.1304E+01  0.3449E+02
  16.343  0.1303E+01  0.3450E+02
  16.353  0.1303E+01  0.3451E+02
  16.363  0.1302E+01  0.3452E+02
  16.373  0.1301E+01  0.3454E+02
  16.383  0.1301E+01  0.3455E+02
  16.393  0.1300E+01  0.3456E+02
  16.403  0.1299E+01  0.3458E+02
  16.413  0.1299E+01  0.3459E+02
  16.423  0.1298E+01  0.3460E+02
  16.433  0.1297E+01  0.3462E+02
  16.443  0.1297E+01  0.3463E+02
  16.453  0.1296E+01  0.3464E+02
  16.463  0.1296E+01  0.3465E+02
  16.473  0.1295E+01  0.3467E+02
  16.483  0.1294E+01  0.3468E+02
  16.493  0.1294E+01  0.3469E+02
  16.503  0.1293E+01  0.3471E+02
  16.513  0.1293E+01  0.3472E+02
  16.523  0.1292E+01  0.3473E+02
  16.533  0.1292E+01  0.3475E+02
  16.543  0.1291E+01  0.3476E+02
  16.553  0.1290E+01  0.3477E+02
  16.563  0.1290E+01  0.3478E+02
  16.573  0.1289E+01  0.3480E+02
  16.583  0.1289E+01  0.3481E+02
  16.593  0.1288E+01  0.3482E+02
  16.603  0.1288E+01  0.3484E+02
  16.613  0.1287E+01  0.3485E+02
  16.623  0.1287E+01  0.3486E+02
  16.633  0.1286E+01  0.3487E+02
  16.643  0.1286E+01  0.3489E+02
  16.653  0.1285E+01  0.3490E+02
  16.663  0.1285E+01  0.3491E+02
  16.673  0.1284E+01  0.3493E+02
  16.683  0.1284E+01  0.3494E+02
  16.693  0.1283E+01  0.3495E+02
  16.703  0.1283E+01  0.3496E+02
  16.713  0.1282E+01  0.3498E+02
  16.723  0.1282E+01  0.3499E+02
  16.733  0.1281E+01  0.3500E+02
  16.743  0.1281E+01  0.3502E+02
  16.753  0.1280E+01  0.3503E+02
  16.763  0.1280E+01  0.3504E+02
  16.773  0.1279E+01  0.3505E+02
  16.783  0.1279E+01  0.3507E+02
  16.793  0.1278E+01  0.3508E+02
  16.803  0.1278E+01  0.3509E+02
  16.813  0.1277E+01  0.3510E+02
  16.823  0.1277E+01  0.3512E+02
  16.833  0.1276E+01  0.3513E+02
  16.843  0.1275E+01  0.3514E+02
  16.853  0.1275E+01  0.3516E+02
  16.863  0.1274E+01  0.3517E+02
  16.873  0.1274E+01  0.3518E+02
  16.883  0.1273E+01  0.3519E+02
  16.893  0.1273E+01  0.3521E+02
  16.903  0.1272E+01  0.3522E+02
  16.913  0.1272E+01  0.3523E+02
  16.923  0.1271E+01  0.3524E+02
  16.933  0.1270E+01  0.3526E+02
  16.943  0.1270E+01  0.3527E+02
  16.953  0.1269E+01  0.3528E+02
  16.963  0.1269E+01  0.3530E+02
  16.973  0.1268E+01  0.3531E+02
  16.983  0.1267E+01  0.3532E+02
  16.993  0.1267E+01  0.3533E+02
  17.003  0.1266E+01  0.3535E+02
  17.013  0.1266E+01  0.3536E+02
  17.023  0.1265E+01  0.3537E+02
  17.033  0.1264E+01  0.3538E+02
  17.043  0.1264E+01  0.3540E+02
  17.053  0.1263E+01  0.3541E+02
  17.063  0.1262E+01  0.3542E+02
  17.073  0.1261E+01  0.3543E+02
  17.083  0.1261E+01  0.3545E+02
  17.093  0.1260E+01  0.3546E+02
  17.103  0.1259E+01  0.3547E+02
  17.113  0.1259E+01  0.3549E+02
  17.123  0.1258E+01  0.3550E+02
  17.133  0.1257E+01  0.3551E+02
  17.143  0.1256E+01  0.3552E+02
  17.153  0.1256E+01  0.3554E+02
  17.163  0.1255E+01  0.3555E+02
  17.173  0.1254E+01  0.3556E+02
  17.183  0.1253E+01  0.3557E+02
  17.193  0.1252E+01  0.3559E+02
  17.203  0.1252E+01  0.3560E+02
  17.213  0.1251E+01  0.3561E+02
  17.223  0.1250E+01  0.3562E+02
  17.233  0.1249E+01  0.3564E+02
  17.243  0.1248E+01  0.3565E+02
  17.253  0.1247E+01  0.3566E+02
  17.263  0.1246E+01  0.3567E+02
  17.273  0.1245E+01  0.3569E+02
  17.283  0.1245E+01  0.3570E+02
  17.293  0.1244E+01  0.3571E+02
  17.303  0.1243E+01  0.3572E+02
  17.313  0.1242E+01  0.3574E+02
  17.323  0.1241E+01  0.3575E+02
  17.333  0.1240E+01  0.3576E+02
  17.343  0.1239E+01  0.3577E+02
  17.353  0.1238E+01  0.3578E+02
  17.363  0.1237E+01  0.3580E+02
  17.373  0.1236E+01  0.3581E+02
  17.383  0.1235E+01  0.3582E+02
  17.393  0.1234E+01  0.3583E+02
  17.403  0.1233E+01  0.3585E+02
  17.413  0.1232E+01  0.3586E+02
  17.423  0.1231E+01  0.3587E+02
  17.433  0.1230E+01  0.3588E+02
  17.443  0.1229E+01  0.3590E+02
  17.453  0.1228E+01  0.3591E+02
  17.463  0.1227E+01  0.3592E+02
  17.473  0.1226E+01  0.3593E+02
  17.483  0.1225E+01  0.3594E+02
  17.493  0.1224E+01  0.3596E+02
  17.503  0.1223E+01  0.3597E+02
  17.513  0.1222E+01  0.3598E+02
  17.523  0.1221E+01  0.3599E+02
  17.533  0.1220E+01  0.3601E+02
  17.543  0.1219E+01  0.3602E+02
  17.553  0.1217E+01  0.3603E+02
  17.563  0.1216E+01  0.3604E+02
  17.573  0.1215E+01  0.3605E+02
  17.583  0.1214E+01  0.3607E+02
  17.593  0.1213E+01  0.3608E+02
  17.603  0.1212E+01  0.3609E+02
  17.613  0.1211E+01  0.3610E+02
  17.623  0.1210E+01  0.3612E+02
  17.633  0.1209E+01  0.3613E+02
  17.643  0.1208E+01  0.3614E+02
  17.653  0.1207E+01  0.3615E+02
  17.663  0.1206E+01  0.3616E+02
  17.673  0.1205E+01  0.3618E+02
  17.683  0.1203E+01  0.3619E+02
  17.693  0.1202E+01  0.3620E+02
  17.703  0.1201E+01  0.3621E+02
  17.713  0.1200E+01  0.3622E+02
  17.723  0.1199E+01  0.3624E+02
  17.733  0.1198E+01  0.3625E+02
  17.743  0.1197E+01  0.3626E+02
  17.753  0.1196E+01  0.3627E+02
  17.763  0.1195E+01  0.3628E+02
  17.773  0.1194E+01  0.3630E+02
  17.783  0.1193E+01  0.3631E+02
  17.793  0.1192E+01  0.3632E+02
  17.803  0.1191E+01  0.3633E+02
  17.813  0.1190E+01  0.3634E+02
  17.823  0.1189E+01  0.3635E+02
  17.833  0.1188E+01  0.3637E+02
  17.843  0.1187E+01  0.3638E+02
  17.853  0.1186E+01  0.3639E+02
  17.863  0.1185E+01  0.3640E+02
  17.873  0.1184E+01  0.3641E+02
  17.883  0.1183E+01  0.3643E+02
  17.893  0.1183E+01  0.3644E+02
  17.903  0.1182E+01  0.3645E+02
  17.913  0.1181E+01  0.3646E+02
  17.923  0.1180E+01  0.3647E+02
  17.933  0.1179E+01  0.3649E+02
  17.943  0.1178E+01  0.3650E+02
  17.953  0.1177E+01  0.3651E+02
  17.963  0.1177E+01  0.3652E+02
  17.973  0.1176E+01  0.3653E+02
  17.983  0.1175E+01  0.3654E+02
  17.993  0.1174E+01  0.3656E+02
  18.003  0.1173E+01  0.3657E+02
  18.013  0.1173E+01  0.3658E+02
  18.023  0.1172E+01  0.3659E+02
  18.033  0.1171E+01  0.3660E+02
  18.043  0.1171E+01  0.3661E+02
  18.053  0.1170E+01  0.3663E+02
  18.063  0.1169E+01  0.3664E+02
  18.073  0.1169E+01  0.3665E+02
  18.083  0.1168E+01  0.3666E+02
  18.093  0.1167E+01  0.3667E+02
  18.103  0.1167E+01  0.3668E+02
  18.113  0.1166E+01  0.3670E+02
  18.123  0.1166E+01  0.3671E+02
  18.133  0.1165E+01  0.3672E+02
  18.143  0.1165E+01  0.3673E+02
  18.153  0.1164E+01  0.3674E+02
  18.163  0.1164E+01  0.3675E+02
  18.173  0.1163E+01  0.3677E+02
  18.183  0.1163E+01  0.3678E+02
  18.193  0.1162E+01  0.3679E+02
  18.203  0.1162E+01  0.3680E+02
  18.213  0.1162E+01  0.3681E+02
  18.223  0.1161E+01  0.3682E+02
  18.233  0.1161E+01  0.3684E+02
  18.243  0.1161E+01  0.3685E+02
  18.253  0.1160E+01  0.3686E+02
  18.263  0.1160E+01  0.3687E+02
  18.273  0.1160E+01  0.3688E+02
  18.283  0.1159E+01  0.3689E+02
  18.293  0.1159E+01  0.3691E+02
  18.303  0.1159E+01  0.3692E+02
  18.313  0.1159E+01  0.3693E+02
  18.323  0.1159E+01  0.3694E+02
  18.333  0.1159E+01  0.3695E+02
  18.343  0.1159E+01  0.3696E+02
  18.353  0.1158E+01  0.3697E+02
  18.363  0.1158E+01  0.3699E+02
  18.373  0.1158E+01  0.3700E+02
  18.383  0.1158E+01  0.3701E+02
  18.393  0.1158E+01  0.3702E+02
  18.403  0.1158E+01  0.3703E+02
  18.413  0.1158E+01  0.3704E+02
  18.423  0.1158E+01  0.3706E+02
  18.433  0.1158E+01  0.3707E+02
  18.443  0.1159E+01  0.3708E+02
  18.453  0.1159E+01  0.3709E+02
  18.463  0.1159E+01  0.3710E+02
  18.473  0.1159E+01  0.3711E+02
  18.483  0.1159E+01  0.3713E+02
  18.493  0.1159E+01  0.3714E+02
  18.503  0.1160E+01  0.3715E+02
  18.513  0.1160E+01  0.3716E+02
  18.523  0.1160E+01  0.3717E+02
  18.533  0.1160E+01  0.3718E+02
  18.543  0.1161E+01  0.3719E+02
  18.553  0.1161E+01  0.3721E+02
  18.563  0.1161E+01  0.3722E+02
  18.573  0.1162E+01  0.3723E+02
  18.583  0.1162E+01  0.3724E+02
  18.593  0.1162E+01  0.3725E+02
  18.603  0.1163E+01  0.3726E+02
  18.613  0.1163E+01  0.3728E+02
  18.623  0.1164E+01  0.3729E+02
  18.633  0.1164E+01  0.3730E+02
  18.643  0.1165E+01  0.3731E+02
  18.653  0.1165E+01  0.3732E+02
  18.663  0.1166E+01  0.3733E+02
  18.673  0.1166E+01  0.3735E+02
  18.683  0.1167E+01  0.3736E+02
  18.693  0.1167E+01  0.3737E+02
  18.703  0.1168E+01  0.3738E+02
  18.713  0.1168E+01  0.3739E+02
  18.723  0.1169E+01  0.3740E+02
  18.733  0.1170E+01  0.3742E+02
  18.743  0.1170E+01  0.3743E+02
  18.753  0.1171E+01  0.3744E+02
  18.763  0.1172E+01  0.3745E+02
  18.773  0.1172E+01  0.3746E+02
  18.783  0.1173E+01  0.3747E+02
  18.793  0.1174E+01  0.3749E+02
  18.803  0.1174E+01  0.3750E+02
  18.813  0.1175E+01  0.3751E+02
  18.823  0.1176E+01  0.3752E+02
  18.833  0.1177E+01  0.3753E+02
  18.843  0.1178E+01  0.3755E+02
  18.853  0.1178E+01  0.3756E+02
  18.863  0.1179E+01  0.3757E+02
  18.873  0.1180E+01  0.3758E+02
  18.883  0.1181E+01  0.3759E+02
  18.893  0.1182E+01  0.3760E+02
  18.903  0.1183E+01  0.3762E+02
  18.913  0.1184E+01  0.3763E+02
  18.923  0.1184E+01  0.3764E+02
  18.933  0.1185E+01  0.3765E+02
  18.943  0.1186E+01  0.3766E+02
  18.953  0.1187E+01  0.3768E+02
  18.963  0.1188E+01  0.3769E+02
  18.973  0.1189E+01  0.3770E+02
  18.983  0.1190E+01  0.3771E+02
  18.993  0.1191E+01  0.3772E+02
  19.003  0.1192E+01  0.3774E+02
  19.013  0.1193E+01  0.3775E+02
  19.023  0.1194E+01  0.3776E+02
  19.033  0.1195E+01  0.3777E+02
  19.043  0.1196E+01  0.3778E+02
  19.053  0.1197E+01  0.3779E+02
  19.063  0.1198E+01  0.3781E+02
  19.073  0.1199E+01  0.3782E+02
  19.083  0.1200E+01  0.3783E+02
  19.093  0.1201E+01  0.3784E+02
  19.103  0.1202E+01  0.3785E+02
  19.113  0.1204E+01  0.3787E+02
  19.123  0.1205E+01  0.3788E+02
  19.133  0.1206E+01  0.3789E+02
  19.143  0.1207E+01  0.3790E+02
  19.153  0.1208E+01  0.3792E+02
  19.163  0.1209E+01  0.3793E+02
  19.173  0.1210E+01  0.3794E+02
  19.183  0.1211E+01  0.3795E+02
  19.193  0.1213E+01  0.3796E+02
  19.203  0.1214E+01  0.3798E+02
  19.213  0.1215E+01  0.3799E+02
  19.223  0.1216E+01  0.3800E+02
  19.233  0.1217E+01  0.3801E+02
  19.243  0.1219E+01  0.3802E+02
  19.253  0.1220E+01  0.3804E+02
  19.263  0.1221E+01  0.3805E+02
  19.273  0.1222E+01  0.3806E+02
  19.283  0.1223E+01  0.3807E+02
  19.293  0.1225E+01  0.3809E+02
  19.303  0.1226E+01  0.3810E+02
  19.313  0.1227E+01  0.3811E+02
  19.323  0.1228E+01  0.3812E+02
  19.333  0.1230E+01  0.3813E+02
  19.343  0.1231E+01  0.3815E+02
  19.353  0.1232E+01  0.3816E+02
  19.363  0.1233E+01  0.3817E+02
  19.373  0.1235E+01  0.3818E+02
  19.383  0.1236E+01  0.3820E+02
  19.393  0.1237E+01  0.3821E+02
  19.403  0.1238E+01  0.3822E+02
  19.413  0.1240E+01  0.3823E+02
  19.423  0.1241E+01  0.3825E+02
  19.433  0.1242E+01  0.3826E+02
  19.443  0.1244E+01  0.3827E+02
  19.453  0.1245E+01  0.3828E+02
  19.463  0.1246E+01  0.3830E+02
  19.473  0.1248E+01  0.3831E+02
  19.483  0.1249E+01  0.3832E+02
  19.493  0.1250E+01  0.3833E+02
  19.503  0.1252E+01  0.3835E+02
  19.513  0.1253E+01  0.3836E+02
  19.523  0.1254E+01  0.3837E+02
  19.533  0.1256E+01  0.3838E+02
  19.543  0.1257E+01  0.3840E+02
  19.553  0.1258E+01  0.3841E+02
  19.563  0.1260E+01  0.3842E+02
  19.573  0.1261E+01  0.3843E+02
  19.583  0.1262E+01  0.3845E+02
  19.593  0.1264E+01  0.3846E+02
  19.603  0.1265E+01  0.3847E+02
  19.613  0.1267E+01  0.3848E+02
  19.623  0.1268E+01  0.3850E+02
  19.633  0.1269E+01  0.3851E+02
  19.643  0.1271E+01  0.3852E+02
  19.653  0.1272E+01  0.3853E+02
  19.663  0.1274E+01  0.3855E+02
  19.673  0.1275E+01  0.3856E+02
  19.683  0.1277E+01  0.3857E+02
  19.693  0.1278E+01  0.3859E+02
  19.703  0.1280E+01  0.3860E+02
  19.713  0.1281E+01  0.3861E+02
  19.723  0.1282E+01  0.3862E+02
  19.733  0.1284E+01  0.3864E+02
  19.743  0.1285E+01  0.3865E+02
  19.753  0.1287E+01  0.3866E+02
  19.763  0.1288E+01  0.3868E+02
  19.773  0.1290E+01  0.3869E+02
  19.783  0.1291E+01  0.3870E+02
  19.793  0.1293E+01  0.3871E+02
  19.803  0.1294E+01  0.3873E+02
  19.813  0.1296E+01  0.3874E+02
  19.823  0.1298E+01  0.3875E+02
  19.833  0.1299E+01  0.3877E+02
  19.843  0.1301E+01  0.3878E+02
  19.853  0.1302E+01  0.3879E+02
  19.863  0.1304E+01  0.3881E+02
  19.873  0.1305E+01  0.3882E+02
  19.883  0.1307E+01  0.3883E+02
  19.893  0.1309E+01  0.3884E+02
  19.903  0.1310E+01  0.3886E+02
  19.913  0.1312E+01  0.3887E+02
  19.923  0.1313E+01  0.3888E+02
  19.933  0.1315E+01  0.3890E+02
  19.943  0.1317E+01  0.3891E+02
  19.953  0.1318E+01  0.3892E+02
  19.963  0.1320E+01  0.3894E+02
  19.973  0.1322E+01  0.3895E+02
  19.983  0.1323E+01  0.3896E+02
  19.993  0.1325E+01  0.3898E+02
  20.003  0.1327E+01  0.3899E+02
  20.013  0.1328E+01  0.3900E+02
  20.023  0.1330E+01  0.3902E+02
  20.033  0.1332E+01  0.3903E+02
  20.043  0.1334E+01  0.3904E+02
  20.053  0.1335E+01  0.3906E+02
  20.063  0.1337E+01  0.3907E+02
  20.073  0.1339E+01  0.3908E+02
  20.083  0.1341E+01  0.3910E+02
  20.093  0.1342E+01  0.3911E+02
  20.103  0.1344E+01  0.3912E+02
  20.113  0.1346E+01  0.3914E+02
  20.123  0.1348E+01  0.3915E+02
  20.133  0.1350E+01  0.3916E+02
  20.143  0.1351E+01  0.3918E+02
  20.153  0.1353E+01  0.3919E+02
  20.163  0.1355E+01  0.3920E+02
  20.173  0.1357E+01  0.3922E+02
  20.183  0.1359E+01  0.3923E+02
  20.193  0.1361E+01  0.3925E+02
  20.203  0.1362E+01  0.3926E+02
  20.213  0.1364E+01  0.3927E+02
  20.223  0.1366E+01  0.3929E+02
  20.233  0.1368E+01  0.3930E+02
  20.243  0.1370E+01  0.3931E+02
  20.253  0.1372E+01  0.3933E+02
  20.263  0.1374E+01  0.3934E+02
  20.273  0.1376E+01  0.3935E+02
  20.283  0.1378E+01  0.3937E+02
  20.293  0.1380E+01  0.3938E+02
  20.303  0.1382E+01  0.3940E+02
  20.313  0.1384E+01  0.3941E+02
  20.323  0.1386E+01  0.3942E+02
  20.333  0.1388E+01  0.3944E+02
  20.343  0.1390E+01  0.3945E+02
  20.353  0.1391E+01  0.3947E+02
  20.363  0.1393E+01  0.3948E+02
  20.373  0.1395E+01  0.3949E+02
  20.383  0.1397E+01  0.3951E+02
  20.393  0.1399E+01  0.3952E+02
  20.403  0.1401E+01  0.3954E+02
  20.413  0.1403E+01  0.3955E+02
  20.423  0.1406E+01  0.3956E+02
  20.433  0.1408E+01  0.3958E+02
  20.443  0.1410E+01  0.3959E+02
  20.453  0.1412E+01  0.3961E+02
  20.463  0.1414E+01  0.3962E+02
  20.473  0.1416E+01  0.3963E+02
  20.483  0.1418E+01  0.3965E+02
  20.493  0.1420E+01  0.3966E+02
  20.503  0.1422E+01  0.3968E+02
  20.513  0.1424E+01  0.3969E+02
  20.523  0.1426E+01  0.3971E+02
  20.533  0.1428E+01  0.3972E+02
  20.543  0.1430E+01  0.3973E+02
  20.553  0.1432E+01  0.3975E+02
  20.563  0.1434E+01  0.3976E+02
  20.573  0.1436E+01  0.3978E+02
  20.583  0.1438E+01  0.3979E+02
  20.593  0.1440E+01  0.3981E+02
  20.603  0.1442E+01  0.3982E+02
  20.613  0.1444E+01  0.3983E+02
  20.623  0.1446E+01  0.3985E+02
  20.633  0.1448E+01  0.3986E+02
  20.643  0.1450E+01  0.3988E+02
  20.653  0.1452E+01  0.3989E+02
  20.663  0.1454E+01  0.3991E+02
  20.673  0.1456E+01  0.3992E+02
  20.683  0.1458E+01  0.3994E+02
  20.693  0.1460E+01  0.3995E+02
  20.703  0.1462E+01  0.3997E+02
  20.713  0.1464E+01  0.3998E+02
  20.723  0.1466E+01  0.3999E+02
  20.733  0.1468E+01  0.4001E+02
  20.743  0.1470E+01  0.4002E+02
  20.753  0.1472E+01  0.4004E+02
  20.763  0.1474E+01  0.4005E+02
  20.773  0.1476E+01  0.4007E+02
  20.783  0.1478E+01  0.4008E+02
  20.793  0.1480E+01  0.4010E+02
  20.803  0.1482E+01  0.4011E+02
  20.813  0.1484E+01  0.4013E+02
  20.823  0.1486E+01  0.4014E+02
  20.833  0.1488E+01  0.4016E+02
  20.843  0.1489E+01  0.4017E+02
  20.853  0.1491E+01  0.4019E+02
  20.863  0.1493E+01  0.4020E+02
  20.873  0.1495E+01  0.4022E+02
  20.883  0.1497E+01  0.4023E+02
  20.893  0.1499E+01  0.4025E+02
  20.903  0.1500E+01  0.4026E+02
  20.913  0.1502E+01  0.4028E+02
  20.923  0.1504E+01  0.4029E+02
  20.933  0.1506E+01  0.4031E+02
  20.943  0.1508E+01  0.4032E+02
  20.953  0.1509E+01  0.4034E+02
  20.963  0.1511E+01  0.4035E+02
  20.973  0.1513E+01  0.4037E+02
  20.983  0.1514E+01  0.4038E+02
  20.993  0.1516E+01  0.4040E+02
  21.003  0.1518E+01  0.4041E+02
  21.013  0.1519E+01  0.4043E+02
  21.023  0.1521E+01  0.4044E+02
  21.033  0.1523E+01  0.4046E+02
  21.043  0.1524E+01  0.4047E+02
  21.053  0.1526E+01  0.4049E+02
  21.063  0.1528E+01  0.4050E+02
  21.073  0.1529E+01  0.4052E+02
  21.083  0.1531E+01  0.4053E+02
  21.093  0.1532E+01  0.4055E+02
  21.103  0.1534E+01  0.4057E+02
  21.113  0.1535E+01  0.4058E+02
  21.123  0.1537E+01  0.4060E+02
  21.133  0.1538E+01  0.4061E+02
  21.143  0.1540E+01  0.4063E+02
  21.153  0.1541E+01  0.4064E+02
  21.163  0.1543E+01  0.4066E+02
  21.173  0.1544E+01  0.4067E+02
  21.183  0.1545E+01  0.4069E+02
  21.193  0.1547E+01  0.4070E+02
  21.203  0.1548E+01  0.4072E+02
  21.213  0.1549E+01  0.4074E+02
  21.223  0.1551E+01  0.4075E+02
  21.233  0.1552E+01  0.4077E+02
  21.243  0.1553E+01  0.4078E+02
  21.253  0.1555E+01  0.4080E+02
  21.263  0.1556E+01  0.4081E+02
  21.273  0.1557E+01  0.4083E+02
  21.283  0.1558E+01  0.4084E+02
  21.293  0.1560E+01  0.4086E+02
  21.303  0.1561E+01  0.4088E+02
  21.313  0.1562E+01  0.4089E+02
  21.323  0.1563E+01  0.4091E+02
  21.333  0.1564E+01  0.4092E+02
  21.343  0.1566E+01  0.4094E+02
  21.353  0.1567E+01  0.4095E+02
  21.363  0.1568E+01  0.4097E+02
  21.373  0.1569E+01  0.4098E+02
  21.383  0.1570E+01  0.4100E+02
  21.393  0.1571E+01  0.4102E+02
  21.403  0.1572E+01  0.4103E+02
  21.413  0.1573E+01  0.4105E+02
  21.423  0.1574E+01  0.4106E+02
  21.433  0.1575E+01  0.4108E+02
  21.443  0.1576E+01  0.4109E+02
  21.453  0.1577E+01  0.4111E+02
  21.463  0.1578E+01  0.4113E+02
  21.473  0.1579E+01  0.4114E+02
  21.483  0.1580E+01  0.4116E+02
  21.493  0.1581E+01  0.4117E+02
  21.503  0.1582E+01  0.4119E+02
  21.513  0.1583E+01  0.4121E+02
  21.523  0.1584E+01  0.4122E+02
  21.533  0.1585E+01  0.4124E+02
  21.543  0.1586E+01  0.4125E+02
  21.553  0.1587E+01  0.4127E+02
  21.563  0.1588E+01  0.4128E+02
  21.573  0.1589E+01  0.4130E+02
  21.583  0.1590E+01  0.4132E+02
  21.593  0.1590E+01  0.4133E+02
  21.603  0.1591E+01  0.4135E+02
  21.613  0.1592E+01  0.4136E+02
  21.623  0.1593E+01  0.4138E+02
  21.633  0.1594E+01  0.4140E+02
  21.643  0.1595E+01  0.4141E+02
  21.653  0.1595E+01  0.4143E+02
  21.663  0.1596E+01  0.4144E+02
  21.673  0.1597E+01  0.4146E+02
  21.683  0.1598E+01  0.4148E+02
  21.693  0.1599E+01  0.4149E+02
  21.703  0.1599E+01  0.4151E+02
  21.713  0.1600E+01  0.4152E+02
  21.723  0.1601E+01  0.4154E+02
  21.733  0.1602E+01  0.4156E+02
  21.743  0.1603E+01  0.4157E+02
  21.753  0.1603E+01  0.4159E+02
  21.763  0.1604E+01  0.4160E+02
  21.773  0.1605E+01  0.4162E+02
  21.783  0.1606E+01  0.4164E+02
  21.793  0.1606E+01  0.4165E+02
  21.803  0.1607E+01  0.4167E+02
  21.813  0.1608E+01  0.4168E+02
  21.823  0.1609E+01  0.4170E+02
  21.833  0.1609E+01  0.4172E+02
  21.843  0.1610E+01  0.4173E+02
  21.853  0.1611E+01  0.4175E+02
  21.863  0.1612E+01  0.4176E+02
  21.873  0.1612E+01  0.4178E+02
  21.883  0.1613E+01  0.4180E+02
  21.893  0.1614E+01  0.4181E+02
  21.903  0.1614E+01  0.4183E+02
  21.913  0.1615E+01  0.4185E+02
  21.923  0.1616E+01  0.4186E+02
  21.933  0.1617E+01  0.4188E+02
  21.943  0.1617E+01  0.4189E+02
  21.953  0.1618E+01  0.4191E+02
  21.963  0.1619E+01  0.4193E+02
  21.973  0.1619E+01  0.4194E+02
  21.983  0.1620E+01  0.4196E+02
  21.993  0.1621E+01  0.4198E+02
  22.003  0.1621E+01  0.4199E+02
  22.013  0.1622E+01  0.4201E+02
  22.023  0.1623E+01  0.4202E+02
  22.033  0.1624E+01  0.4204E+02
  22.043  0.1624E+01  0.4206E+02
  22.053  0.1625E+01  0.4207E+02
  22.063  0.1626E+01  0.4209E+02
  22.073  0.1626E+01  0.4210E+02
  22.083  0.1627E+01  0.4212E+02
  22.093  0.1628E+01  0.4214E+02
  22.103  0.1628E+01  0.4215E+02
  22.113  0.1629E+01  0.4217E+02
  22.123  0.1630E+01  0.4219E+02
  22.133  0.1630E+01  0.4220E+02
  22.143  0.1631E+01  0.4222E+02
  22.153  0.1632E+01  0.4224E+02
  22.163  0.1633E+01  0.4225E+02
  22.173  0.1633E+01  0.4227E+02
  22.183  0.1634E+01  0.4228E+02
  22.193  0.1635E+01  0.4230E+02
  22.203  0.1635E+01  0.4232E+02
  22.213  0.1636E+01  0.4233E+02
  22.223  0.1637E+01  0.4235E+02
  22.233  0.1637E+01  0.4237E+02
  22.243  0.1638E+01  0.4238E+02
  22.253  0.1639E+01  0.4240E+02
  22.263  0.1639E+01  0.4242E+02
  22.273  0.1640E+01  0.4243E+02
  22.283  0.1641E+01  0.4245E+02
  22.293  0.1641E+01  0.4246E+02
  22.303  0.1642E+01  0.4248E+02
  22.313  0.1643E+01  0.4250E+02
  22.323  0.1643E+01  0.4251E+02
  22.333  0.1644E+01  0.4253E+02
  22.343  0.1645E+01  0.4255E+02
  22.353  0.1645E+01  0.4256E+02
  22.363  0.1646E+01  0.4258E+02
  22.373  0.1647E+01  0.4260E+02
  22.383  0.1647E+01  0.4261E+02
  22.393  0.1648E+01  0.4263E+02
  22.403  0.1649E+01  0.4265E+02
  22.413  0.1649E+01  0.4266E+02
  22.423  0.1650E+01  0.4268E+02
  22.433  0.1650E+01  0.4269E+02
  22.443  0.1651E+01  0.4271E+02
  22.453  0.1652E+01  0.4273E+02
  22.463  0.1652E+01  0.4274E+02
  22.473  0.1653E+01  0.4276E+02
  22.483  0.1654E+01  0.4278E+02
  22.493  0.1654E+01  0.4279E+02
  22.503  0.1655E+01  0.4281E+02
  22.513  0.1656E+01  0.4283E+02
  22.523  0.1656E+01  0.4284E+02
  22.533  0.1657E+01  0.4286E+02
  22.543  0.1657E+01  0.4288E+02
  22.553  0.1658E+01  0.4289E+02
  22.563  0.1659E+01  0.4291E+02
  22.573  0.1659E+01  0.4293E+02
  22.583  0.1660E+01  0.4294E+02
  22.593  0.1661E+01  0.4296E+02
  22.603  0.1661E+01  0.4298E+02
  22.613  0.1662E+01  0.4299E+02
  22.623  0.1662E+01  0.4301E+02
  22.633  0.1663E+01  0.4303E+02
  22.643  0.1664E+01  0.4304E+02
  22.653  0.1664E+01  0.4306E+02
  22.663  0.1665E+01  0.4308E+02
  22.673  0.1665E+01  0.4309E+02
  22.683  0.1666E+01  0.4311E+02
  22.693  0.1667E+01  0.4313E+02
  22.703  0.1667E+01  0.4314E+02
  22.713  0.1668E+01  0.4316E+02
  22.723  0.1668E+01  0.4318E+02
  22.733  0.1669E+01  0.4319E+02
  22.743  0.1670E+01  0.4321E+02
  22.753  0.1670E+01  0.4323E+02
  22.763  0.1671E+01  0.4324E+02
  22.773  0.1671E+01  0.4326E+02
  22.783  0.1672E+01  0.4328E+02
  22.793  0.1672E+01  0.4329E+02
  22.803  0.1673E+01  0.4331E+02
  22.813  0.1673E+01  0.4333E+02
  22.823  0.1674E+01  0.4334E+02
  22.833  0.1675E+01  0.4336E+02
  22.843  0.1675E+01  0.4338E+02
  22.853  0.1676E+01  0.4339E+02
  22.863  0.1676E+01  0.4341E+02
  22.873  0.1677E+01  0.4343E+02
  22.883  0.1677E+01  0.4344E+02
  22.893  0.1678E+01  0.4346E+02
  22.903  0.1678E+01  0.4348E+02
  22.913  0.1679E+01  0.4349E+02
  22.923  0.1679E+01  0.4351E+02
  22.933  0.1680E+01  0.4353E+02
  22.943  0.1680E+01  0.4354E+02
  22.953  0.1681E+01  0.4356E+02
  22.963  0.1681E+01  0.4358E+02
  22.973  0.1682E+01  0.4360E+02
  22.983  0.1682E+01  0.4361E+02
  22.993  0.1683E+01  0.4363E+02
  23.003  0.1683E+01  0.4365E+02
  23.013  0.1684E+01  0.4366E+02
  23.023  0.1684E+01  0.4368E+02
  23.033  0.1685E+01  0.4370E+02
  23.043  0.1685E+01  0.4371E+02
  23.053  0.1686E+01  0.4373E+02
  23.063  0.1686E+01  0.4375E+02
  23.073  0.1686E+01  0.4376E+02
  23.083  0.1687E+01  0.4378E+02
  23.093  0.1687E+01  0.4380E+02
  23.103  0.1688E+01  0.4381E+02
  23.113  0.1688E+01  0.4383E+02
  23.123  0.1688E+01  0.4385E+02
  23.133  0.1689E+01  0.4386E+02
  23.143  0.1689E+01  0.4388E+02
  23.153  0.1690E+01  0.4390E+02
  23.163  0.1690E+01  0.4392E+02
  23.173  0.1690E+01  0.4393E+02
  23.183  0.1690E+01  0.4395E+02
  23.193  0.1691E+01  0.4397E+02
  23.203  0.1691E+01  0.4398E+02
  23.213  0.1691E+01  0.4400E+02
  23.223  0.1692E+01  0.4402E+02
  23.233  0.1692E+01  0.4403E+02
  23.243  0.1692E+01  0.4405E+02
  23.253  0.1692E+01  0.4407E+02
  23.263  0.1693E+01  0.4408E+02
  23.273  0.1693E+01  0.4410E+02
  23.283  0.1693E+01  0.4412E+02
  23.293  0.1693E+01  0.4414E+02
  23.303  0.1693E+01  0.4415E+02
  23.313  0.1693E+01  0.4417E+02
  23.323  0.1694E+01  0.4419E+02
  23.333  0.1694E+01  0.4420E+02
  23.343  0.1694E+01  0.4422E+02
  23.353  0.1694E+01  0.4424E+02
  23.363  0.1694E+01  0.4425E+02
  23.373  0.1694E+01  0.4427E+02
  23.383  0.1694E+01  0.4429E+02
  23.393  0.1694E+01  0.4430E+02
  23.403  0.1694E+01  0.4432E+02
  23.413  0.1694E+01  0.4434E+02
  23.423  0.1693E+01  0.4436E+02
  23.433  0.1693E+01  0.4437E+02
  23.443  0.1693E+01  0.4439E+02
  23.453  0.1693E+01  0.4441E+02
  23.463  0.1693E+01  0.4442E+02
  23.473  0.1693E+01  0.4444E+02
  23.483  0.1692E+01  0.4446E+02
  23.493  0.1692E+01  0.4447E+02
  23.503  0.1692E+01  0.4449E+02
  23.513  0.1691E+01  0.4451E+02
  23.523  0.1691E+01  0.4452E+02
  23.533  0.1691E+01  0.4454E+02
  23.543  0.1690E+01  0.4456E+02
  23.553  0.1690E+01  0.4458E+02
  23.563  0.1689E+01  0.4459E+02
  23.573  0.1689E+01  0.4461E+02
  23.583  0.1688E+01  0.4463E+02
  23.593  0.1687E+01  0.4464E+02
  23.603  0.1687E+01  0.4466E+02
  23.613  0.1686E+01  0.4468E+02
  23.623  0.1685E+01  0.4469E+02
  23.633  0.1685E+01  0.4471E+02
  23.643  0.1684E+01  0.4473E+02
  23.653  0.1683E+01  0.4474E+02
  23.663  0.1682E+01  0.4476E+02
  23.673  0.1681E+01  0.4478E+02
  23.683  0.1680E+01  0.4479E+02
  23.693  0.1679E+01  0.4481E+02
  23.703  0.1678E+01  0.4483E+02
  23.713  0.1677E+01  0.4485E+02
  23.723  0.1676E+01  0.4486E+02
  23.733  0.1675E+01  0.4488E+02
  23.743  0.1674E+01  0.4490E+02
  23.753  0.1672E+01  0.4491E+02
  23.763  0.1671E+01  0.4493E+02
  23.773  0.1670E+01  0.4495E+02
  23.783  0.1668E+01  0.4496E+02
  23.793  0.1667E+01  0.4498E+02
  23.803  0.1665E+01  0.4500E+02
  23.813  0.1664E+01  0.4501E+02
  23.823  0.1662E+01  0.4503E+02
  23.833  0.1661E+01  0.4505E+02
  23.843  0.1659E+01  0.4506E+02
  23.853  0.1657E+01  0.4508E+02
  23.863  0.1656E+01  0.4510E+02
  23.873  0.1654E+01  0.4511E+02
  23.883  0.1652E+01  0.4513E+02
  23.893  0.1650E+01  0.4514E+02
  23.903  0.1648E+01  0.4516E+02
  23.913  0.1646E+01  0.4518E+02
  23.923  0.1644E+01  0.4519E+02
  23.933  0.1642E+01  0.4521E+02
  23.943  0.1639E+01  0.4523E+02
  23.953  0.1637E+01  0.4524E+02
  23.963  0.1635E+01  0.4526E+02
  23.973  0.1632E+01  0.4528E+02
  23.983  0.1630E+01  0.4529E+02
  23.993  0.1628E+01  0.4531E+02
  24.003  0.1625E+01  0.4532E+02
  24.013  0.1622E+01  0.4534E+02
  24.023  0.1620E+01  0.4536E+02
  24.033  0.1617E+01  0.4537E+02
  24.043  0.1614E+01  0.4539E+02
  24.053  0.1612E+01  0.4541E+02
  24.063  0.1609E+01  0.4542E+02
  24.073  0.1606E+01  0.4544E+02
  24.083  0.1603E+01  0.4545E+02
  24.093  0.1600E+01  0.4547E+02
  24.103  0.1597E+01  0.4549E+02
  24.113  0.1594E+01  0.4550E+02
  24.123  0.1590E+01  0.4552E+02
  24.133  0.1587E+01  0.4553E+02
  24.143  0.1584E+01  0.4555E+02
  24.153  0.1580E+01  0.4556E+02
  24.163  0.1577E+01  0.4558E+02
  24.173  0.1573E+01  0.4560E+02
  24.183  0.1570E+01  0.4561E+02
  24.193  0.1566E+01  0.4563E+02
  24.203  0.1563E+01  0.4564E+02
  24.213  0.1559E+01  0.4566E+02
  24.223  0.1555E+01  0.4567E+02
  24.233  0.1551E+01  0.4569E+02
  24.243  0.1548E+01  0.4571E+02
  24.253  0.1544E+01  0.4572E+02
  24.263  0.1540E+01  0.4574E+02
  24.273  0.1536E+01  0.4575E+02
  24.283  0.1531E+01  0.4577E+02
  24.293  0.1527E+01  0.4578E+02
  24.303  0.1523E+01  0.4580E+02
  24.313  0.1519E+01  0.4581E+02
  24.323  0.1515E+01  0.4583E+02
  24.333  0.1510E+01  0.4584E+02
  24.343  0.1506E+01  0.4586E+02
  24.353  0.1501E+01  0.4587E+02
  24.363  0.1497E+01  0.4589E+02
  24.373  0.1492E+01  0.4590E+02
  24.383  0.1488E+01  0.4592E+02
  24.393  0.1483E+01  0.4593E+02
  24.403  0.1478E+01  0.4595E+02
  24.413  0.1474E+01  0.4596E+02
  24.423  0.1469E+01  0.4598E+02
  24.433  0.1464E+01  0.4599E+02
  24.443  0.1459E+01  0.4601E+02
  24.453  0.1454E+01  0.4602E+02
  24.463  0.1449E+01  0.4604E+02
  24.473  0.1444E+01  0.4605E+02
  24.483  0.1439E+01  0.4606E+02
  24.493  0.1434E+01  0.4608E+02
  24.503  0.1429E+01  0.4609E+02
  24.513  0.1424E+01  0.4611E+02
  24.523  0.1418E+01  0.4612E+02
  24.533  0.1413E+01  0.4614E+02
  24.543  0.1408E+01  0.4615E+02
  24.553  0.1402E+01  0.4616E+02
  24.563  0.1397E+01  0.4618E+02
  24.573  0.1391E+01  0.4619E+02
  24.583  0.1386E+01  0.4621E+02
  24.593  0.1380E+01  0.4622E+02
  24.603  0.1375E+01  0.4623E+02
  24.613  0.1369E+01  0.4625E+02
  24.623  0.1364E+01  0.4626E+02
  24.633  0.1358E+01  0.4627E+02
  24.643  0.1352E+01  0.4629E+02
  24.653  0.1347E+01  0.4630E+02
  24.663  0.1341E+01  0.4631E+02
  24.673  0.1335E+01  0.4633E+02
  24.683  0.1329E+01  0.4634E+02
  24.693  0.1323E+01  0.4635E+02
  24.703  0.1317E+01  0.4637E+02
  24.713  0.1311E+01  0.4638E+02
  24.723  0.1305E+01  0.4639E+02
  24.733  0.1300E+01  0.4641E+02
  24.743  0.1293E+01  0.4642E+02
  24.753  0.1287E+01  0.4643E+02
  24.763  0.1281E+01  0.4644E+02
  24.773  0.1275E+01  0.4646E+02
  24.783  0.1269E+01  0.4647E+02
  24.793  0.1263E+01  0.4648E+02
  24.803  0.1257E+01  0.4650E+02
  24.813  0.1251E+01  0.4651E+02
  24.823  0.1245E+01  0.4652E+02
  24.833  0.1238E+01  0.4653E+02
  24.843  0.1232E+01  0.4655E+02
  24.853  0.1226E+01  0.4656E+02
  24.863  0.1220E+01  0.4657E+02
  24.873  0.1213E+01  0.4658E+02
  24.883  0.1207E+01  0.4659E+02
  24.893  0.1201E+01  0.4661E+02
  24.903  0.1194E+01  0.4662E+02
  24.913  0.1188E+01  0.4663E+02
  24.923  0.1182E+01  0.4664E+02
  24.933  0.1175E+01  0.4665E+02
  24.943  0.1169E+01  0.4666E+02
  24.953  0.1162E+01  0.4668E+02
  24.963  0.1156E+01  0.4669E+02
  24.973  0.1150E+01  0.4670E+02
  24.983  0.1143E+01  0.4671E+02
  24.993  0.1137E+01  0.4672E+02
  25.003  0.1130E+01  0.4673E+02
  25.013  0.1124E+01  0.4674E+02
  25.023  0.1117E+01  0.4676E+02
  25.033  0.1111E+01  0.4677E+02
  25.043  0.1104E+01  0.4678E+02
  25.053  0.1098E+01  0.4679E+02
  25.063  0.1091E+01  0.4680E+02
  25.073  0.1085E+01  0.4681E+02
  25.083  0.1078E+01  0.4682E+02
  25.093  0.1072E+01  0.4683E+02
  25.103  0.1065E+01  0.4684E+02
  25.113  0.1059E+01  0.4685E+02
  25.123  0.1052E+01  0.4686E+02
  25.133  0.1046E+01  0.4687E+02
  25.143  0.1039E+01  0.4689E+02
  25.153  0.1033E+01  0.4690E+02
  25.163  0.1026E+01  0.4691E+02
  25.173  0.1020E+01  0.4692E+02
  25.183  0.1013E+01  0.4693E+02
  25.193  0.1007E+01  0.4694E+02
  25.203  0.1000E+01  0.4695E+02
  25.213  0.9937E+00  0.4696E+02
  25.223  0.9872E+00  0.4697E+02
  25.233  0.9808E+00  0.4698E+02
  25.243  0.9743E+00  0.4699E+02
  25.253  0.9678E+00  0.4700E+02
  25.263  0.9613E+00  0.4700E+02
  25.273  0.9548E+00  0.4701E+02
  25.283  0.9484E+00  0.4702E+02
  25.293  0.9419E+00  0.4703E+02
  25.303  0.9355E+00  0.4704E+02
  25.313  0.9290E+00  0.4705E+02
  25.323  0.9226E+00  0.4706E+02
  25.333  0.9162E+00  0.4707E+02
  25.343  0.9098E+00  0.4708E+02
  25.353  0.9034E+00  0.4709E+02
  25.363  0.8970E+00  0.4710E+02
  25.373  0.8906E+00  0.4711E+02
  25.383  0.8843E+00  0.4711E+02
  25.393  0.8779E+00  0.4712E+02
  25.403  0.8716E+00  0.4713E+02
  25.413  0.8652E+00  0.4714E+02
  25.423  0.8589E+00  0.4715E+02
  25.433  0.8526E+00  0.4716E+02
  25.443  0.8463E+00  0.4717E+02
  25.453  0.8401E+00  0.4718E+02
  25.463  0.8338E+00  0.4718E+02
  25.473  0.8276E+00  0.4719E+02
  25.483  0.8213E+00  0.4720E+02
  25.493  0.8151E+00  0.4721E+02
  25.503  0.8089E+00  0.4722E+02
  25.513  0.8028E+00  0.4722E+02
  25.523  0.7966E+00  0.4723E+02
  25.533  0.7905E+00  0.4724E+02
  25.543  0.7843E+00  0.4725E+02
  25.553  0.7782E+00  0.4726E+02
  25.563  0.7721E+00  0.4726E+02
  25.573  0.7661E+00  0.4727E+02
  25.583  0.7600E+00  0.4728E+02
  25.593  0.7540E+00  0.4729E+02
  25.603  0.7480E+00  0.4729E+02
  25.613  0.7420E+00  0.4730E+02
  25.623  0.7360E+00  0.4731E+02
  25.633  0.7301E+00  0.4732E+02
  25.643  0.7242E+00  0.4732E+02
  25.653  0.7183E+00  0.4733E+02
  25.663  0.7124E+00  0.4734E+02
  25.673  0.7065E+00  0.4734E+02
  25.683  0.7007E+00  0.4735E+02
  25.693  0.6949E+00  0.4736E+02
  25.703  0.6891E+00  0.4737E+02
  25.713  0.6833E+00  0.4737E+02
  25.723  0.6775E+00  0.4738E+02
  25.733  0.6718E+00  0.4739E+02
  25.743  0.6661E+00  0.4739E+02
  25.753  0.6604E+00  0.4740E+02
  25.763  0.6548E+00  0.4741E+02
  25.773  0.6492E+00  0.4741E+02
  25.783  0.6436E+00  0.4742E+02
  25.793  0.6380E+00  0.4742E+02
  25.803  0.6325E+00  0.4743E+02
  25.813  0.6269E+00  0.4744E+02
  25.823  0.6214E+00  0.4744E+02
  25.833  0.6160E+00  0.4745E+02
  25.843  0.6105E+00  0.4746E+02
  25.853  0.6051E+00  0.4746E+02
  25.863  0.5997E+00  0.4747E+02
  25.873  0.5944E+00  0.4747E+02
  25.883  0.5890E+00  0.4748E+02
  25.893  0.5837E+00  0.4749E+02
  25.903  0.5785E+00  0.4749E+02
  25.913  0.5732E+00  0.4750E+02
  25.923  0.5680E+00  0.4750E+02
  25.933  0.5628E+00  0.4751E+02
  25.943  0.5576E+00  0.4751E+02
  25.953  0.5525E+00  0.4752E+02
  25.963  0.5474E+00  0.4752E+02
  25.973  0.5423E+00  0.4753E+02
  25.983  0.5373E+00  0.4754E+02
  25.993  0.5323E+00  0.4754E+02
  26.003  0.5273E+00  0.4755E+02
  26.013  0.5223E+00  0.4755E+02
  26.023  0.5174E+00  0.4756E+02
  26.033  0.5125E+00  0.4756E+02
  26.043  0.5076E+00  0.4757E+02
  26.053  0.5028E+00  0.4757E+02
  26.063  0.4980E+00  0.4758E+02
  26.073  0.4932E+00  0.4758E+02
  26.083  0.4885E+00  0.4759E+02
  26.093  0.4838E+00  0.4759E+02
  26.103  0.4791E+00  0.4760E+02
  26.113  0.4744E+00  0.4760E+02
  26.123  0.4698E+00  0.4761E+02
  26.133  0.4652E+00  0.4761E+02
  26.143  0.4607E+00  0.4762E+02
  26.153  0.4561E+00  0.4762E+02
  26.163  0.4516E+00  0.4762E+02
  26.173  0.4472E+00  0.4763E+02
  26.183  0.4428E+00  0.4763E+02
  26.193  0.4384E+00  0.4764E+02
  26.203  0.4340E+00  0.4764E+02
  26.213  0.4296E+00  0.4765E+02
  26.223  0.4253E+00  0.4765E+02
  26.233  0.4211E+00  0.4765E+02
  26.243  0.4168E+00  0.4766E+02
  26.253  0.4126E+00  0.4766E+02
  26.263  0.4084E+00  0.4767E+02
  26.273  0.4043E+00  0.4767E+02
  26.283  0.4002E+00  0.4767E+02
  26.293  0.3961E+00  0.4768E+02
  26.303  0.3920E+00  0.4768E+02
  26.313  0.3880E+00  0.4769E+02
  26.323  0.3840E+00  0.4769E+02
  26.333  0.3801E+00  0.4769E+02
  26.343  0.3761E+00  0.4770E+02
  26.353  0.3723E+00  0.4770E+02
  26.363  0.3684E+00  0.4771E+02
  26.373  0.3646E+00  0.4771E+02
  26.383  0.3607E+00  0.4771E+02
  26.393  0.3570E+00  0.4772E+02
  26.403  0.3532E+00  0.4772E+02
  26.413  0.3495E+00  0.4772E+02
  26.423  0.3458E+00  0.4773E+02
  26.433  0.3422E+00  0.4773E+02
  26.443  0.3386E+00  0.4773E+02
  26.453  0.3350E+00  0.4774E+02
  26.463  0.3314E+00  0.4774E+02
  26.473  0.3279E+00  0.4774E+02
  26.483  0.3244E+00  0.4775E+02
  26.493  0.3209E+00  0.4775E+02
  26.503  0.3175E+00  0.4775E+02
  26.513  0.3141E+00  0.4776E+02
  26.523  0.3107E+00  0.4776E+02
  26.533  0.3073E+00  0.4776E+02
  26.543  0.3040E+00  0.4777E+02
  26.553  0.3007E+00  0.4777E+02
  26.563  0.2975E+00  0.4777E+02
  26.573  0.2942E+00  0.4777E+02
  26.583  0.2910E+00  0.4778E+02
  26.593  0.2878E+00  0.4778E+02
  26.603  0.2847E+00  0.4778E+02
  26.613  0.2815E+00  0.4779E+02
  26.623  0.2784E+00  0.4779E+02
  26.633  0.2754E+00  0.4779E+02
  26.643  0.2723E+00  0.4779E+02
  26.653  0.2693E+00  0.4780E+02
  26.663  0.2663E+00  0.4780E+02
  26.673  0.2633E+00  0.4780E+02
  26.683  0.2604E+00  0.4780E+02
  26.693  0.2575E+00  0.4781E+02
  26.703  0.2546E+00  0.4781E+02
  26.713  0.2517E+00  0.4781E+02
  26.723  0.2489E+00  0.4781E+02
  26.733  0.2461E+00  0.4782E+02
  26.743  0.2433E+00  0.4782E+02
  26.753  0.2406E+00  0.4782E+02
  26.763  0.2378E+00  0.4782E+02
  26.773  0.2351E+00  0.4783E+02
  26.783  0.2324E+00  0.4783E+02
  26.793  0.2298E+00  0.4783E+02
  26.803  0.2271E+00  0.4783E+02
  26.813  0.2245E+00  0.4784E+02
  26.823  0.2219E+00  0.4784E+02
  26.833  0.2193E+00  0.4784E+02
  26.843  0.2168E+00  0.4784E+02
  26.853  0.2143E+00  0.4784E+02
  26.863  0.2118E+00  0.4785E+02
  26.873  0.2093E+00  0.4785E+02
  26.883  0.2068E+00  0.4785E+02
  26.893  0.2044E+00  0.4785E+02
  26.903  0.2020E+00  0.4786E+02
  26.913  0.1996E+00  0.4786E+02
  26.923  0.1972E+00  0.4786E+02
  26.933  0.1949E+00  0.4786E+02
  26.943  0.1926E+00  0.4786E+02
  26.953  0.1903E+00  0.4786E+02
  26.963  0.1880E+00  0.4787E+02
  26.973  0.1857E+00  0.4787E+02
  26.983  0.1835E+00  0.4787E+02
  26.993  0.1813E+00  0.4787E+02
  27.003  0.1791E+00  0.4787E+02
  27.013  0.1769E+00  0.4788E+02
  27.023  0.1747E+00  0.4788E+02
  27.033  0.1726E+00  0.4788E+02
  27.043  0.1704E+00  0.4788E+02
  27.053  0.1683E+00  0.4788E+02
  27.063  0.1663E+00  0.4788E+02
  27.073  0.1642E+00  0.4789E+02
  27.083  0.1621E+00  0.4789E+02
  27.093  0.1601E+00  0.4789E+02
  27.103  0.1581E+00  0.4789E+02
  27.113  0.1561E+00  0.4789E+02
  27.123  0.1541E+00  0.4789E+02
  27.133  0.1522E+00  0.4790E+02
  27.143  0.1503E+00  0.4790E+02
  27.153  0.1483E+00  0.4790E+02
  27.163  0.1464E+00  0.4790E+02
  27.173  0.1446E+00  0.4790E+02
  27.183  0.1427E+00  0.4790E+02
  27.193  0.1408E+00  0.4790E+02
  27.203  0.1390E+00  0.4791E+02
  27.213  0.1372E+00  0.4791E+02
  27.223  0.1354E+00  0.4791E+02
  27.233  0.1336E+00  0.4791E+02
  27.243  0.1319E+00  0.4791E+02
  27.253  0.1301E+00  0.4791E+02
  27.263  0.1284E+00  0.4791E+02
  27.273  0.1267E+00  0.4791E+02
  27.283  0.1250E+00  0.4792E+02
  27.293  0.1233E+00  0.4792E+02
  27.303  0.1216E+00  0.4792E+02
  27.313  0.1200E+00  0.4792E+02
  27.323  0.1184E+00  0.4792E+02
  27.333  0.1168E+00  0.4792E+02
  27.343  0.1152E+00  0.4792E+02
  27.353  0.1136E+00  0.4792E+02
  27.363  0.1120E+00  0.4793E+02
  27.373  0.1105E+00  0.4793E+02
  27.383  0.1089E+00  0.4793E+02
  27.393  0.1074E+00  0.4793E+02
  27.403  0.1059E+00  0.4793E+02
  27.413  0.1044E+00  0.4793E+02
  27.423  0.1029E+00  0.4793E+02
  27.433  0.1015E+00  0.4793E+02
  27.443  0.1001E+00  0.4793E+02
  27.453  0.9863E-01  0.4793E+02
  27.463  0.9722E-01  0.4794E+02
  27.473  0.9582E-01  0.4794E+02
  27.483  0.9445E-01  0.4794E+02
  27.493  0.9308E-01  0.4794E+02
  27.503  0.9173E-01  0.4794E+02
  27.513  0.9040E-01  0.4794E+02
  27.523  0.8908E-01  0.4794E+02
  27.533  0.8778E-01  0.4794E+02
  27.543  0.8649E-01  0.4794E+02
  27.553  0.8521E-01  0.4794E+02
  27.563  0.8395E-01  0.4794E+02
  27.573  0.8271E-01  0.4795E+02
  27.583  0.8148E-01  0.4795E+02
  27.593  0.8026E-01  0.4795E+02
  27.603  0.7906E-01  0.4795E+02
  27.613  0.7788E-01  0.4795E+02
  27.623  0.7670E-01  0.4795E+02
  27.633  0.7554E-01  0.4795E+02
  27.643  0.7440E-01  0.4795E+02
  27.653  0.7327E-01  0.4795E+02
  27.663  0.7216E-01  0.4795E+02
  27.673  0.7106E-01  0.4795E+02
  27.683  0.6997E-01  0.4795E+02
  27.693  0.6889E-01  0.4795E+02
  27.703  0.6784E-01  0.4796E+02
  27.713  0.6679E-01  0.4796E+02
  27.723  0.6576E-01  0.4796E+02
  27.733  0.6474E-01  0.4796E+02
  27.743  0.6374E-01  0.4796E+02
  27.753  0.6274E-01  0.4796E+02
  27.763  0.6177E-01  0.4796E+02
  27.773  0.6080E-01  0.4796E+02
  27.783  0.5985E-01  0.4796E+02
  27.793  0.5892E-01  0.4796E+02
  27.803  0.5799E-01  0.4796E+02
  27.813  0.5708E-01  0.4796E+02
  27.823  0.5618E-01  0.4796E+02
  27.833  0.5530E-01  0.4796E+02
  27.843  0.5442E-01  0.4796E+02
  27.853  0.5357E-01  0.4796E+02
  27.863  0.5272E-01  0.4796E+02
  27.873  0.5188E-01  0.4797E+02
  27.883  0.5106E-01  0.4797E+02
  27.893  0.5025E-01  0.4797E+02
  27.903  0.4946E-01  0.4797E+02
  27.913  0.4867E-01  0.4797E+02
  27.923  0.4790E-01  0.4797E+02
  27.933  0.4714E-01  0.4797E+02
  27.943  0.4639E-01  0.4797E+02
  27.953  0.4565E-01  0.4797E+02
  27.963  0.4493E-01  0.4797E+02
  27.973  0.4421E-01  0.4797E+02
  27.983  0.4351E-01  0.4797E+02
  27.993  0.4282E-01  0.4797E+02
  28.003  0.4214E-01  0.4797E+02
  28.013  0.4147E-01  0.4797E+02
  28.023  0.4081E-01  0.4797E+02
  28.033  0.4017E-01  0.4797E+02
  28.043  0.3953E-01  0.4797E+02
  28.053  0.3891E-01  0.4797E+02
  28.063  0.3829E-01  0.4797E+02
  28.073  0.3769E-01  0.4797E+02
  28.083  0.3710E-01  0.4797E+02
  28.093  0.3651E-01  0.4797E+02
  28.103  0.3594E-01  0.4798E+02
  28.113  0.3538E-01  0.4798E+02
  28.123  0.3482E-01  0.4798E+02
  28.133  0.3428E-01  0.4798E+02
  28.143  0.3375E-01  0.4798E+02
  28.153  0.3322E-01  0.4798E+02
  28.163  0.3271E-01  0.4798E+02
  28.173  0.3220E-01  0.4798E+02
  28.183  0.3170E-01  0.4798E+02
  28.193  0.3122E-01  0.4798E+02
  28.203  0.3074E-01  0.4798E+02
  28.213  0.3027E-01  0.4798E+02
  28.223  0.2981E-01  0.4798E+02
  28.233  0.2935E-01  0.4798E+02
  28.243  0.2891E-01  0.4798E+02
  28.253  0.2847E-01  0.4798E+02
  28.263  0.2804E-01  0.4798E+02
  28.273  0.2762E-01  0.4798E+02
  28.283  0.2721E-01  0.4798E+02
  28.293  0.2680E-01  0.4798E+02
  28.303  0.2641E-01  0.4798E+02
  28.313  0.2602E-01  0.4798E+02
  28.323  0.2563E-01  0.4798E+02
  28.333  0.2526E-01  0.4798E+02
  28.343  0.2489E-01  0.4798E+02
  28.353  0.2453E-01  0.4798E+02
  28.363  0.2417E-01  0.4798E+02
  28.373  0.2383E-01  0.4798E+02
  28.383  0.2348E-01  0.4798E+02
  28.393  0.2315E-01  0.4798E+02
  28.403  0.2282E-01  0.4798E+02
  28.413  0.2250E-01  0.4798E+02
  28.423  0.2218E-01  0.4798E+02
  28.433  0.2187E-01  0.4798E+02
  28.443  0.2156E-01  0.4798E+02
  28.453  0.2127E-01  0.4798E+02
  28.463  0.2097E-01  0.4799E+02
  28.473  0.2068E-01  0.4799E+02
  28.483  0.2040E-01  0.4799E+02
  28.493  0.2012E-01  0.4799E+02
  28.503  0.1985E-01  0.4799E+02
  28.513  0.1958E-01  0.4799E+02
  28.523  0.1932E-01  0.4799E+02
  28.533  0.1906E-01  0.4799E+02
  28.543  0.1881E-01  0.4799E+02
  28.553  0.1856E-01  0.4799E+02
  28.563  0.1832E-01  0.4799E+02
  28.573  0.1808E-01  0.4799E+02
  28.583  0.1784E-01  0.4799E+02
  28.593  0.1761E-01  0.4799E+02
  28.603  0.1738E-01  0.4799E+02
  28.613  0.1716E-01  0.4799E+02
  28.623  0.1694E-01  0.4799E+02
  28.633  0.1672E-01  0.4799E+02
  28.643  0.1651E-01  0.4799E+02
  28.653  0.1630E-01  0.4799E+02
  28.663  0.1610E-01  0.4799E+02
  28.673  0.1590E-01  0.4799E+02
  28.683  0.1570E-01  0.4799E+02
  28.693  0.1550E-01  0.4799E+02
  28.703  0.1531E-01  0.4799E+02
  28.713  0.1512E-01  0.4799E+02
  28.723  0.1494E-01  0.4799E+02
  28.733  0.1475E-01  0.4799E+02
  28.743  0.1457E-01  0.4799E+02
  28.753  0.1440E-01  0.4799E+02
  28.763  0.1422E-01  0.4799E+02
  28.773  0.1405E-01  0.4799E+02
  28.783  0.1388E-01  0.4799E+02
  28.793  0.1371E-01  0.4799E+02
  28.803  0.1355E-01  0.4799E+02
  28.813  0.1339E-01  0.4799E+02
  28.823  0.1323E-01  0.4799E+02
  28.833  0.1307E-01  0.4799E+02
  28.843  0.1291E-01  0.4799E+02
  28.853  0.1276E-01  0.4799E+02
  28.863  0.1261E-01  0.4799E+02
  28.873  0.1246E-01  0.4799E+02
  28.883  0.1231E-01  0.4799E+02
  28.893  0.1217E-01  0.4799E+02
  28.903  0.1202E-01  0.4799E+02
  28.913  0.1188E-01  0.4799E+02
  28.923  0.1174E-01  0.4799E+02
  28.933  0.1160E-01  0.4799E+02
  28.943  0.1147E-01  0.4799E+02
  28.953  0.1133E-01  0.4799E+02
  28.963  0.1120E-01  0.4799E+02
  28.973  0.1107E-01  0.4799E+02
  28.983  0.1093E-01  0.4799E+02
  28.993  0.1081E-01  0.4799E+02
  29.003  0.1068E-01  0.4799E+02
  29.013  0.1055E-01  0.4799E+02
  29.023  0.1043E-01  0.4799E+02
  29.033  0.1030E-01  0.4799E+02
  29.043  0.1018E-01  0.4799E+02
  29.053  0.1006E-01  0.4799E+02
  29.063  0.9939E-02  0.4799E+02
  29.073  0.9820E-02  0.4799E+02
  29.083  0.9702E-02  0.4799E+02
  29.093  0.9585E-02  0.4799E+02
  29.103  0.9470E-02  0.4799E+02
  29.113  0.9356E-02  0.4799E+02
  29.123  0.9242E-02  0.4799E+02
  29.133  0.9130E-02  0.4799E+02
  29.143  0.9019E-02  0.4799E+02
  29.153  0.8908E-02  0.4799E+02
  29.163  0.8799E-02  0.4799E+02
  29.173  0.8691E-02  0.4799E+02
  29.183  0.8583E-02  0.4799E+02
  29.193  0.8477E-02  0.4800E+02
  29.203  0.8371E-02  0.4800E+02
  29.213  0.8266E-02  0.4800E+02
  29.223  0.8162E-02  0.4800E+02
  29.233  0.8059E-02  0.4800E+02
  29.243  0.7957E-02  0.4800E+02
  29.253  0.7856E-02  0.4800E+02
  29.263  0.7756E-02  0.4800E+02
  29.273  0.7656E-02  0.4800E+02
  29.283  0.7557E-02  0.4800E+02
  29.293  0.7459E-02  0.4800E+02
  29.303  0.7362E-02  0.4800E+02
  29.313  0.7265E-02  0.4800E+02
  29.323  0.7170E-02  0.4800E+02
  29.333  0.7075E-02  0.4800E+02
  29.343  0.6980E-02  0.4800E+02
  29.353  0.6887E-02  0.4800E+02
  29.363  0.6794E-02  0.4800E+02
  29.373  0.6702E-02  0.4800E+02
  29.383  0.6611E-02  0.4800E+02
  29.393  0.6521E-02  0.4800E+02
  29.403  0.6431E-02  0.4800E+02
  29.413  0.6342E-02  0.4800E+02
  29.423  0.6254E-02  0.4800E+02
  29.433  0.6166E-02  0.4800E+02
  29.443  0.6079E-02  0.4800E+02
  29.453  0.5993E-02  0.4800E+02
  29.463  0.5908E-02  0.4800E+02
  29.473  0.5823E-02  0.4800E+02
  29.483  0.5739E-02  0.4800E+02
  29.493  0.5655E-02  0.4800E+02
  29.503  0.5573E-02  0.4800E+02
  29.513  0.5491E-02  0.4800E+02
  29.523  0.5410E-02  0.4800E+02
  29.533  0.5329E-02  0.4800E+02
  29.543  0.5249E-02  0.4800E+02
  29.553  0.5170E-02  0.4800E+02
  29.563  0.5092E-02  0.4800E+02
  29.573  0.5014E-02  0.4800E+02
  29.583  0.4937E-02  0.4800E+02
  29.593  0.4860E-02  0.4800E+02
  29.603  0.4785E-02  0.4800E+02
  29.613  0.4710E-02  0.4800E+02
  29.623  0.4635E-02  0.4800E+02
  29.633  0.4562E-02  0.4800E+02
  29.643  0.4489E-02  0.4800E+02
  29.653  0.4417E-02  0.4800E+02
  29.663  0.4345E-02  0.4800E+02
  29.673  0.4275E-02  0.4800E+02
  29.683  0.4204E-02  0.4800E+02
  29.693  0.4135E-02  0.4800E+02
  29.703  0.4066E-02  0.4800E+02
  29.713  0.3998E-02  0.4800E+02
  29.723  0.3931E-02  0.4800E+02
  29.733  0.3864E-02  0.4800E+02
  29.743  0.3798E-02  0.4800E+02
  29.753  0.3733E-02  0.4800E+02
  29.763  0.3669E-02  0.4800E+02
  29.773  0.3605E-02  0.4800E+02
  29.783  0.3542E-02  0.4800E+02
  29.793  0.3479E-02  0.4800E+02
  29.803  0.3417E-02  0.4800E+02
  29.813  0.3356E-02  0.4800E+02
  29.823  0.3296E-02  0.4800E+02
  29.833  0.3236E-02  0.4800E+02
  29.843  0.3177E-02  0.4800E+02
  29.853  0.3119E-02  0.4800E+02
  29.863  0.3062E-02  0.4800E+02
  29.873  0.3005E-02  0.4800E+02
  29.883  0.2949E-02  0.4800E+02
  29.893  0.2893E-02  0.4800E+02
  29.903  0.2838E-02  0.4800E+02
  29.913  0.2784E-02  0.4800E+02
  29.923  0.2731E-02  0.4800E+02
  29.933  0.2678E-02  0.4800E+02
  29.943  0.2626E-02  0.4800E+02
  29.953  0.2574E-02  0.4800E+02
  29.963  0.2524E-02  0.4800E+02
  29.973  0.2474E-02  0.4800E+02
  29.983  0.2424E-02  0.4800E+02
  29.993  0.2376E-02  0.4800E+02
  30.003  0.2328E-02  0.4800E+02
  30.013  0.2280E-02  0.4800E+02
  30.023  0.2234E-02  0.4800E+02
  30.033  0.2188E-02  0.4800E+02
  30.043  0.2142E-02  0.4800E+02
  30.053  0.2098E-02  0.4800E+02
  30.063  0.2054E-02  0.4800E+02
  30.073  0.2010E-02  0.4800E+02
  30.083  0.1967E-02  0.4800E+02
  30.093  0.1925E-02  0.4800E+02
  30.103  0.1884E-02  0.4800E+02
  30.113  0.1843E-02  0.4800E+02
  30.123  0.1803E-02  0.4800E+02
  30.133  0.1763E-02  0.4800E+02
  30.143  0.1725E-02  0.4800E+02
  30.153  0.1686E-02  0.4800E+02
  30.163  0.1649E-02  0.4800E+02
  30.173  0.1612E-02  0.4800E+02
  30.183  0.1575E-02  0.4800E+02
  30.193  0.1539E-02  0.4800E+02
  30.203  0.1504E-02  0.4800E+02
  30.213  0.1469E-02  0.4800E+02
  30.223  0.1435E-02  0.4800E+02
  30.233  0.1402E-02  0.4800E+02
  30.243  0.1369E-02  0.4800E+02
  30.253  0.1337E-02  0.4800E+02
  30.263  0.1305E-02  0.4800E+02
  30.273  0.1274E-02  0.4800E+02
  30.283  0.1243E-02  0.4800E+02
  30.293  0.1213E-02  0.4800E+02
  30.303  0.1184E-02  0.4800E+02
  30.313  0.1155E-02  0.4800E+02
  30.323  0.1126E-02  0.4800E+02
  30.333  0.1098E-02  0.4800E+02
  30.343  0.1071E-02  0.4800E+02
  30.353  0.1044E-02  0.4800E+02
  30.363  0.1018E-02  0.4800E+02
  30.373  0.9921E-03  0.4800E+02
  30.383  0.9668E-03  0.4800E+02
  30.393  0.9421E-03  0.4800E+02
  30.403  0.9178E-03  0.4800E+02
  30.413  0.8940E-03  0.4800E+02
  30.423  0.8707E-03  0.4800E+02
  30.433  0.8478E-03  0.4800E+02
  30.443  0.8255E-03  0.4800E+02
  30.453  0.8036E-03  0.4800E+02
  30.463  0.7821E-03  0.4800E+02
  30.473  0.7612E-03  0.4800E+02
  30.483  0.7406E-03  0.4800E+02
  30.493  0.7205E-03  0.4800E+02
  30.503  0.7009E-03  0.4800E+02
  30.513  0.6816E-03  0.4800E+02
  30.523  0.6628E-03  0.4800E+02
  30.533  0.6445E-03  0.4800E+02
  30.543  0.6265E-03  0.4800E+02
  30.553  0.6089E-03  0.4800E+02
  30.563  0.5917E-03  0.4800E+02
  30.573  0.5749E-03  0.4800E+02
  30.583  0.5586E-03  0.4800E+02
  30.593  0.5425E-03  0.4800E+02
  30.603  0.5269E-03  0.4800E+02
  30.613  0.5116E-03  0.4800E+02
  30.623  0.4967E-03  0.4800E+02
  30.633  0.4822E-03  0.4800E+02
  30.643  0.4680E-03  0.4800E+02
  30.653  0.4541E-03  0.4800E+02
  30.663  0.4406E-03  0.4800E+02
  30.673  0.4274E-03  0.4800E+02
  30.683  0.4145E-03  0.4800E+02
  30.693  0.4020E-03  0.4800E+02
  30.703  0.3898E-03  0.4800E+02
  30.713  0.3779E-03  0.4800E+02
  30.723  0.3662E-03  0.4800E+02
  30.733  0.3549E-03  0.4800E+02
  30.743  0.3439E-03  0.4800E+02
  30.753  0.3332E-03  0.4800E+02
  30.763  0.3227E-03  0.4800E+02
  30.773  0.3125E-03  0.4800E+02
  30.783  0.3026E-03  0.4800E+02
  30.793  0.2930E-03  0.4800E+02
  30.803  0.2836E-03  0.4800E+02
  30.813  0.2745E-03  0.4800E+02
  30.823  0.2656E-03  0.4800E+02
  30.833  0.2570E-03  0.4800E+02
  30.843  0.2486E-03  0.4800E+02
  30.853  0.2404E-03  0.4800E+02
  30.863  0.2325E-03  0.4800E+02
  30.873  0.2247E-03  0.4800E+02
  30.883  0.2172E-03  0.4800E+02
  30.893  0.2100E-03  0.4800E+02
  30.903  0.2029E-03  0.4800E+02
  30.913  0.1960E-03  0.4800E+02
  30.923  0.1894E-03  0.4800E+02
  30.933  0.1829E-03  0.4800E+02
  30.943  0.1766E-03  0.4800E+02
  30.953  0.1705E-03  0.4800E+02
  30.963  0.1646E-03  0.4800E+02
  30.973  0.1589E-03  0.4800E+02
  30.983  0.1533E-03  0.4800E+02
  30.993  0.1479E-03  0.4800E+02
  31.003  0.1427E-03  0.4800E+02
  31.013  0.1376E-03  0.4800E+02
  31.023  0.1327E-03  0.4800E+02
  31.033  0.1279E-03  0.4800E+02
  31.043  0.1233E-03  0.4800E+02
  31.053  0.1188E-03  0.4800E+02
  31.063  0.1145E-03  0.4800E+02
  31.073  0.1103E-03  0.4800E+02
  31.083  0.1063E-03  0.4800E+02
  31.093  0.1024E-03  0.4800E+02
  31.103  0.9856E-04  0.4800E+02
  31.113  0.9489E-04  0.4800E+02
  31.123  0.9134E-04  0.4800E+02
  31.133  0.8791E-04  0.4800E+02
  31.143  0.8459E-04  0.4800E+02
  31.153  0.8138E-04  0.4800E+02
  31.163  0.7828E-04  0.4800E+02
  31.173  0.7528E-04  0.4800E+02
  31.183  0.7238E-04  0.4800E+02
  31.193  0.6958E-04  0.4800E+02
  31.203  0.6688E-04  0.4800E+02
  31.213  0.6428E-04  0.4800E+02
  31.223  0.6176E-04  0.4800E+02
  31.233  0.5933E-04  0.4800E+02
  31.243  0.5698E-04  0.4800E+02
  31.253  0.5472E-04  0.4800E+02
  31.263  0.5254E-04  0.4800E+02
  31.273  0.5043E-04  0.4800E+02
  31.283  0.4841E-04  0.4800E+02
  31.293  0.4645E-04  0.4800E+02
  31.303  0.4456E-04  0.4800E+02
  31.313  0.4275E-04  0.4800E+02
  31.323  0.4100E-04  0.4800E+02
  31.333  0.3931E-04  0.4800E+02
  31.343  0.3769E-04  0.4800E+02
  31.353  0.3612E-04  0.4800E+02
  31.363  0.3462E-04  0.4800E+02
  31.373  0.3317E-04  0.4800E+02
  31.383  0.3178E-04  0.4800E+02
  31.393  0.3044E-04  0.4800E+02
  31.403  0.2915E-04  0.4800E+02
  31.413  0.2791E-04  0.4800E+02
  31.423  0.2671E-04  0.4800E+02
  31.433  0.2557E-04  0.4800E+02
  31.443  0.2446E-04  0.4800E+02
  31.453  0.2341E-04  0.4800E+02
  31.463  0.2239E-04  0.4800E+02
  31.473  0.2141E-04  0.4800E+02
  31.483  0.2047E-04  0.4800E+02
  31.493  0.1957E-04  0.4800E+02
  31.503  0.1871E-04  0.4800E+02
  31.513  0.1788E-04  0.4800E+02
  31.523  0.1708E-04  0.4800E+02
  31.533  0.1632E-04  0.4800E+02
  31.543  0.1558E-04  0.4800E+02
  31.553  0.1488E-04  0.4800E+02
  31.563  0.1421E-04  0.4800E+02
  31.573  0.1356E-04  0.4800E+02
  31.583  0.1294E-04  0.4800E+02
  31.593  0.1235E-04  0.4800E+02
  31.603  0.1178E-04  0.4800E+02
  31.613  0.1123E-04  0.4800E+02
  31.623  0.1071E-04  0.4800E+02
  31.633  0.1021E-04  0.4800E+02
  31.643  0.9736E-05  0.4800E+02
  31.653  0.9279E-05  0.4800E+02
  31.663  0.8841E-05  0.4800E+02
  31.673  0.8423E-05  0.4800E+02
  31.683  0.8023E-05  0.4800E+02
  31.693  0.7640E-05  0.4800E+02
  31.703  0.7274E-05  0.4800E+02
  31.713  0.6924E-05  0.4800E+02
  31.723  0.6590E-05  0.4800E+02
  31.733  0.6271E-05  0.4800E+02
  31.743  0.5966E-05  0.4800E+02
  31.753  0.5674E-05  0.4800E+02
  31.763  0.5396E-05  0.4800E+02
  31.773  0.5131E-05  0.4800E+02
  31.783  0.4877E-05  0.4800E+02
  31.793  0.4636E-05  0.4800E+02
  31.803  0.4405E-05  0.4800E+02
  31.813  0.4185E-05  0.4800E+02
  31.823  0.3975E-05  0.4800E+02
  31.833  0.3775E-05  0.4800E+02
  31.843  0.3584E-05  0.4800E+02
  31.853  0.3402E-05  0.4800E+02
  31.863  0.3229E-05  0.4800E+02
  31.873  0.3064E-05  0.4800E+02
  31.883  0.2907E-05  0.4800E+02
  31.893  0.2758E-05  0.4800E+02
  31.903  0.2615E-05  0.4800E+02
  31.913  0.2480E-05  0.4800E+02
  31.923  0.2350E-05  0.4800E+02
  31.933  0.2228E-05  0.4800E+02
  31.943  0.2111E-05  0.4800E+02
  31.953  0.2000E-05  0.4800E+02
  31.963  0.1894E-05  0.4800E+02
  31.973  0.1794E-05  0.4800E+02
  31.983  0.1699E-05  0.4800E+02
  31.993  0.1608E-05  0.4800E+02
  32.003  0.1522E-05  0.4800E+02
  32.013  0.1440E-05  0.4800E+02
  32.023  0.1362E-05  0.4800E+02
  32.033  0.1289E-05  0.4800E+02
  32.043  0.1219E-05  0.4800E+02
  32.053  0.1152E-05  0.4800E+02
  32.063  0.1089E-05  0.4800E+02
  32.073  0.1029E-05  0.4800E+02
  32.083  0.9725E-06  0.4800E+02
  32.093  0.9188E-06  0.4800E+02
  32.103  0.8678E-06  0.4800E+02
  32.113  0.8195E-06  0.4800E+02
  32.123  0.7737E-06  0.4800E+02
  32.133  0.7303E-06  0.4800E+02
  32.143  0.6892E-06  0.4800E+02
  32.153  0.6503E-06  0.4800E+02
  32.163  0.6135E-06  0.4800E+02
  32.173  0.5786E-06  0.4800E+02
  32.183  0.5456E-06  0.4800E+02
  32.193  0.5144E-06  0.4800E+02
  32.203  0.4849E-06  0.4800E+02
  32.213  0.4569E-06  0.4800E+02
  32.223  0.4305E-06  0.4800E+02
  32.233  0.4056E-06  0.4800E+02
  32.243  0.3820E-06  0.4800E+02
  32.253  0.3597E-06  0.4800E+02
  32.263  0.3386E-06  0.4800E+02
  32.273  0.3187E-06  0.4800E+02
  32.283  0.2999E-06  0.4800E+02
  32.293  0.2822E-06  0.4800E+02
  32.303  0.2654E-06  0.4800E+02
  32.313  0.2496E-06  0.4800E+02
  32.323  0.2347E-06  0.4800E+02
  32.333  0.2206E-06  0.4800E+02
  32.343  0.2074E-06  0.4800E+02
  32.353  0.1948E-06  0.4800E+02
  32.363  0.1830E-06  0.4800E+02
  32.373  0.1719E-06  0.4800E+02
  32.383  0.1615E-06  0.4800E+02
  32.393  0.1516E-06  0.4800E+02
  32.403  0.1423E-06  0.4800E+02
  32.413  0.1335E-06  0.4800E+02
  32.423  0.1253E-06  0.4800E+02
  32.433  0.1175E-06  0.4800E+02
